timestamps,TP9,AF7,AF8,TP10,Right AUX
1734412292.4130337,-866.2109375,-943.359375,982.421875,-1000.0,0.0
1734412292.4168932,881.8359375,-982.421875,904.296875,-1000.0,0.0
1734412292.4207528,-393.5546875,-62.98828125,791.50390625,-655.76171875,0.0
1734412292.4246125,-1000.0,-1000.0,551.26953125,922.36328125,0.0
1734412292.428472,8.7890625,-154.78515625,745.60546875,224.12109375,0.0
1734412292.4323316,-899.4140625,-992.1875,873.53515625,-1000.0,0.0
1734412292.4350636,885.7421875,-939.453125,884.27734375,-967.28515625,0.0
1734412292.4388292,-371.09375,100.5859375,126.953125,-975.09765625,0.0
1734412292.4425948,-1000.0,-1000.0,-939.453125,-1000.0,0.0
1734412292.4463606,-191.89453125,-297.8515625,-498.53515625,-1000.0,0.0
1734412292.4501262,-955.078125,959.9609375,398.4375,-1000.0,0.0
1734412292.4538918,929.6875,-913.0859375,402.34375,-1000.0,0.0
1734412292.4576573,-325.68359375,156.25,-498.046875,-1000.0,0.0
1734412292.461423,-1000.0,-1000.0,-1000.0,-1000.0,0.0
1734412292.4651885,-453.61328125,-533.69140625,-905.76171875,-1000.0,0.0
1734412292.468954,907.2265625,805.17578125,-500.48828125,-1000.0,0.0
1734412292.4727197,-963.8671875,-862.79296875,-245.60546875,-1000.0,0.0
1734412292.4764853,-212.890625,204.1015625,-672.8515625,-1000.0,0.0
1734412292.4774015,-1000.0,-1000.0,-1000.0,-1000.0,0.0
1734412292.4810483,-631.34765625,-735.83984375,-935.05859375,-1000.0,0.0
1734412292.4846952,695.80078125,596.19140625,-508.7890625,-1000.0,0.0
1734412292.488342,-835.44921875,-831.0546875,158.203125,-1000.0,0.0
1734412292.4919891,183.10546875,367.1875,-216.796875,-1000.0,0.0
1734412292.495636,-1000.0,-1000.0,-1000.0,-1000.0,0.0
1734412292.4992828,-683.59375,-914.0625,-891.6015625,-1000.0,0.0
1734412292.5029297,701.171875,414.0625,0.9765625,-1000.0,0.0
1734412292.5065765,-835.9375,-860.3515625,676.7578125,-958.984375,0.0
1734412292.5102234,265.625,666.50390625,445.80078125,-1000.0,0.0
1734412292.5138702,-1000.0,-698.2421875,-542.48046875,-942.87109375,0.0
1734412292.517517,-646.97265625,-1000.0,-687.01171875,255.859375,0.0
1734412292.5172997,748.046875,279.296875,494.62890625,-245.1171875,0.0
1734412292.5208392,-889.6484375,-901.3671875,930.6640625,-1000.0,0.0
1734412292.5243788,665.0390625,861.328125,785.64453125,-1000.0,0.0
1734412292.5279183,-813.4765625,-354.00390625,320.3125,-792.96875,0.0
1734412292.531458,-925.29296875,-1000.0,184.08203125,763.671875,0.0
1734412292.5349975,557.6171875,7.32421875,787.59765625,168.45703125,0.0
1734412292.538537,-902.83203125,-919.921875,918.45703125,-1000.0,0.0
1734412292.5420766,824.21875,911.62109375,899.90234375,-922.36328125,0.0
1734412292.545616,-470.703125,-266.11328125,506.8359375,-1000.0,0.0
1734412292.5491555,-1000.0,-1000.0,224.12109375,-169.43359375,0.0
1734412292.552695,93.26171875,-216.796875,696.77734375,-50.29296875,0.0
1734412292.5562346,-819.3359375,-913.0859375,879.39453125,-1000.0,0.0
1734412292.5561378,632.8125,791.015625,862.79296875,-986.81640625,0.0
1734412292.5596015,-700.68359375,-508.7890625,239.2578125,-982.91015625,0.0
1734412292.5630653,-1000.0,-1000.0,-687.98828125,-1000.0,0.0
1734412292.5665293,-231.4453125,-622.0703125,-52.24609375,-1000.0,0.0
1734412292.569993,-847.16796875,840.33203125,730.95703125,-1000.0,0.0
1734412292.5734568,466.796875,806.640625,689.94140625,-1000.0,0.0
1734412292.5769205,-887.20703125,-675.78125,-84.9609375,-1000.0,0.0
1734412292.5803843,-1000.0,-1000.0,-1000.0,-1000.0,0.0
1734412292.583848,-564.453125,-1000.0,-463.37890625,-1000.0,0.0
1734412292.5873117,961.9140625,229.00390625,475.5859375,-1000.0,0.0
1734412292.5907757,734.375,-968.26171875,692.87109375,-931.640625,0.0
1734412292.5942395,-727.05078125,-459.9609375,-31.25,-1000.0,0.0
1734412292.5949442,-1000.0,-1000.0,-990.72265625,-333.984375,0.0
1734412292.5983622,-695.3125,-1000.0,-472.16796875,-928.7109375,0.0
1734412292.60178,712.40234375,-27.34375,527.34375,50.78125,0.0
1734412292.6051977,-954.58984375,-827.63671875,789.0625,-1000.0,0.0
1734412292.6086154,-330.078125,-98.6328125,430.6640625,-196.2890625,0.0
1734412292.6120334,-1000.0,-1000.0,-491.2109375,-951.171875,0.0
1734412292.615451,-671.875,-1000.0,-135.7421875,952.1484375,0.0
1734412292.6188688,642.578125,-72.265625,868.65234375,941.40625,0.0
1734412292.6222868,-826.171875,-793.45703125,898.92578125,977.05078125,0.0
1734412292.6257045,161.62109375,118.1640625,746.58203125,969.7265625,0.0
1734412292.6291223,-1000.0,-1000.0,363.76953125,970.21484375,0.0
1734412292.6325402,-756.34765625,-1000.0,482.421875,969.7265625,0.0
1734412292.6362724,618.65234375,-115.234375,902.34375,969.7265625,0.0
1734412292.6396947,-818.84765625,-797.8515625,910.15625,969.7265625,0.0
1734412292.643117,166.9921875,187.5,887.6953125,969.7265625,0.0
1734412292.646539,-1000.0,-1000.0,576.66015625,969.7265625,0.0
1734412292.6499612,-944.3359375,-1000.0,542.96875,969.7265625,0.0
1734412292.6533835,392.08984375,-197.265625,884.27734375,969.7265625,0.0
1734412292.6568055,-892.578125,-932.6171875,922.36328125,969.7265625,0.0
1734412292.6602278,167.48046875,162.109375,905.2734375,969.7265625,0.0
1734412292.6636498,-1000.0,-946.77734375,722.16796875,969.7265625,0.0
1734412292.667072,-949.21875,-1000.0,702.63671875,969.7265625,0.0
1734412292.6704943,445.80078125,-161.62109375,913.0859375,969.7265625,0.0
1734412292.6739163,-968.75,-962.40234375,937.98828125,969.7265625,0.0
1734412292.6779842,-953.125,957.51953125,925.29296875,969.7265625,0.0
1734412292.6814141,-62.5,-220.703125,905.76171875,983.88671875,0.0
1734412292.6848438,-1000.0,-1000.0,897.4609375,897.4609375,0.0
1734412292.6882737,358.3984375,-47.8515625,933.59375,-911.1328125,0.0
1734412292.6917036,-959.9609375,-996.58203125,952.63671875,525.87890625,0.0
1734412292.6951334,-934.08203125,-921.875,948.2421875,-902.83203125,0.0
1734412292.6985633,214.35546875,267.08984375,927.24609375,-1000.0,0.0
1734412292.7019932,-1000.0,-1000.0,916.015625,-946.2890625,0.0
1734412292.7054229,187.98828125,-142.08984375,932.12890625,-1000.0,0.0
1734412292.7088528,-943.359375,-983.3984375,946.77734375,-1000.0,0.0
1734412292.7122827,-962.40234375,-952.1484375,947.75390625,-1000.0,0.0
1734412292.7157125,546.38671875,578.125,910.15625,-1000.0,0.0
1734412292.7201998,-1000.0,-997.55859375,837.890625,-1000.0,0.0
1734412292.7236407,-103.515625,-256.34765625,869.62890625,-1000.0,0.0
1734412292.7270815,-938.96484375,-959.47265625,908.69140625,-1000.0,0.0
1734412292.7305224,-993.1640625,992.67578125,912.59765625,-1000.0,0.0
1734412292.7339633,742.67578125,830.56640625,741.2109375,-1000.0,0.0
1734412292.737404,-883.30078125,-718.26171875,-169.921875,-1000.0,0.0
1734412292.740845,-294.43359375,-380.859375,-323.73046875,-1000.0,0.0
1734412292.7442858,-921.875,-937.98828125,555.6640625,-1000.0,0.0
1734412292.7477267,918.45703125,911.1328125,806.15234375,-1000.0,0.0
1734412292.7511675,-919.921875,-899.90234375,19.04296875,-1000.0,0.0
1734412292.7546084,-336.42578125,-177.24609375,-991.69921875,-1000.0,0.0
1734412292.7580492,-355.46875,-520.01953125,-980.95703125,-1000.0,0.0
1734412292.7627647,-909.1796875,-999.51171875,-505.37109375,-1000.0,0.0
1734412292.7662172,897.94921875,926.26953125,235.83984375,-1000.0,0.0
1734412292.76967,-865.72265625,-870.60546875,-223.14453125,-1000.0,0.0
1734412292.7731225,-130.859375,35.15625,-1000.0,-1000.0,0.0
1734412292.7765753,-523.92578125,-696.2890625,-988.28125,-1000.0,0.0
1734412292.7800279,-991.69921875,855.95703125,-706.54296875,-1000.0,0.0
1734412292.7834806,922.36328125,976.07421875,-410.15625,-1000.0,0.0
1734412292.7869332,-864.2578125,-905.76171875,-592.28515625,-1000.0,0.0
1734412292.790386,52.24609375,162.109375,-953.125,-1000.0,0.0
1734412292.7938387,-676.26953125,-962.40234375,-1000.0,-1000.0,0.0
1734412292.7972913,881.34765625,503.41796875,-416.50390625,-1000.0,0.0
1734412292.800744,971.6796875,-965.8203125,282.71484375,-1000.0,0.0
1734412292.805823,-901.3671875,-938.4765625,338.8671875,-1000.0,0.0
1734412292.8092892,152.34375,307.12890625,-418.45703125,-1000.0,0.0
1734412292.8127553,-933.10546875,-1000.0,-1000.0,-1000.0,0.0
1734412292.8162217,561.5234375,171.875,71.77734375,-1000.0,0.0
1734412292.8196878,-962.890625,-936.5234375,677.24609375,-1000.0,0.0
1734412292.823154,-946.2890625,-956.0546875,583.0078125,-1000.0,0.0
1734412292.8266203,229.98046875,366.69921875,135.25390625,-1000.0,0.0
1734412292.8300865,-1000.0,-1000.0,-836.9140625,-1000.0,0.0
1734412292.8335528,118.65234375,-144.04296875,-11.23046875,-1000.0,0.0
1734412292.837019,-941.40625,-978.02734375,596.6796875,-1000.0,0.0
1734412292.840485,-946.77734375,-937.01171875,510.25390625,-1000.0,0.0
1734412292.8439515,336.9140625,475.5859375,169.921875,-1000.0,0.0
1734412292.8492203,-1000.0,-1000.0,-1000.0,-1000.0,0.0
1734412292.8527,-102.05078125,-231.93359375,-303.7109375,-1000.0,0.0
1734412292.85618,-971.19140625,-963.8671875,354.4921875,-1000.0,0.0
1734412292.85966,-956.0546875,991.69921875,12.6953125,-1000.0,0.0
1734412292.8631396,623.53515625,852.5390625,66.40625,-1000.0,0.0
1734412292.8666196,-1000.0,-699.21875,-810.546875,-1000.0,0.0
1734412292.8700995,-266.11328125,-316.89453125,-491.69921875,-1000.0,0.0
1734412292.8735793,-942.3828125,-916.015625,277.34375,-1000.0,0.0
1734412292.8770592,954.1015625,913.0859375,-253.41796875,-1000.0,0.0
1734412292.8805392,978.515625,-913.0859375,-30.2734375,-1000.0,0.0
1734412292.884019,-534.1796875,-259.27734375,-570.80078125,-1000.0,0.0
1734412292.8874989,-339.35546875,-399.4140625,-646.484375,-1000.0,0.0
1734412292.8929062,-921.875,-943.84765625,192.87109375,-1000.0,0.0
1734412292.8963995,927.734375,916.015625,-318.359375,-1000.0,0.0
1734412292.8998928,-929.19921875,-882.32421875,-459.47265625,-1000.0,0.0
1734412292.903386,-375.48828125,-134.765625,-747.0703125,-1000.0,0.0
1734412292.9068792,-451.66015625,-668.45703125,-864.74609375,-1000.0,0.0
1734412292.9103725,-951.66015625,904.78515625,-477.05078125,-1000.0,0.0
1734412292.9138658,925.29296875,964.35546875,-823.73046875,-1000.0,0.0
1734412292.917359,-899.90234375,-910.64453125,-856.93359375,-1000.0,0.0
1734412292.9208524,-257.32421875,43.9453125,-904.296875,-1000.0,0.0
1734412292.9243457,-696.2890625,-988.76953125,-969.7265625,-1000.0,0.0
1734412292.9278388,922.8515625,514.6484375,-874.0234375,-1000.0,0.0
1734412292.931332,968.75,-964.35546875,-988.76953125,-1000.0,0.0
1734412292.936638,-931.640625,-942.87109375,-1000.0,-1000.0,0.0
1734412292.9401429,-38.0859375,178.7109375,-994.62890625,-1000.0,0.0
1734412292.9436479,-1000.0,-1000.0,-1000.0,-1000.0,0.0
1734412292.9471526,412.59765625,143.5546875,-998.53515625,-1000.0,0.0
1734412292.9506576,-953.125,-941.40625,-1000.0,-1000.0,0.0
1734412292.9541624,-947.75390625,-944.82421875,-1000.0,-1000.0,0.0
1734412292.9576674,139.6484375,235.83984375,-1000.0,-1000.0,0.0
1734412292.961172,-1000.0,-1000.0,-1000.0,-1000.0,0.0
1734412292.964677,116.69921875,-74.70703125,-1000.0,-1000.0,0.0
1734412292.9681818,-941.89453125,-968.75,-1000.0,-1000.0,0.0
1734412292.9716868,-949.70703125,-931.15234375,-1000.0,-1000.0,0.0
1734412292.9751916,243.65234375,285.15625,-1000.0,-1000.0,0.0
1734412292.9823523,0.0,-1000.0,-1000.0,-1000.0,0.0
1734412292.985879,0.0,-197.75390625,-1000.0,-1000.0,0.0
1734412292.9894054,0.0,-998.046875,-1000.0,-1000.0,0.0
1734412292.992932,0.0,-921.38671875,-1000.0,-1000.0,0.0
1734412292.9964588,0.0,426.26953125,-1000.0,-1000.0,0.0
1734412292.9999855,0.0,-1000.0,-1000.0,-1000.0,0.0
1734412293.0035121,0.0,-223.6328125,-1000.0,-1000.0,0.0
1734412293.0070386,0.0,-983.3984375,-1000.0,-1000.0,0.0
1734412293.0105653,0.0,-964.35546875,-1000.0,-1000.0,0.0
1734412293.014092,0.0,677.734375,-999.0234375,-1000.0,0.0
1734412293.0176187,0.0,-930.17578125,-1000.0,-1000.0,0.0
1734412293.0211453,0.0,-354.98046875,-988.76953125,-1000.0,0.0
1734412293.0280786,-997.55859375,-985.83984375,-979.00390625,-1000.0,0.0
1734412293.031624,-935.546875,-998.046875,-1000.0,-1000.0,0.0
1734412293.0351698,499.51171875,819.82421875,-995.60546875,-1000.0,0.0
1734412293.0387154,-1000.0,-733.3984375,-1000.0,-1000.0,0.0
1734412293.042261,-443.84765625,-686.03515625,-964.35546875,-1000.0,0.0
1734412293.0458064,932.6171875,858.88671875,-931.15234375,-1000.0,0.0
1734412293.049352,-921.875,-966.796875,-1000.0,-1000.0,0.0
1734412293.0528977,591.796875,879.8828125,-992.67578125,-1000.0,0.0
1734412293.0564432,-946.77734375,-452.63671875,-1000.0,-1000.0,0.0
1734412293.0599887,-817.87109375,-1000.0,-978.515625,-1000.0,0.0
1734412293.0635343,660.15625,360.3515625,-887.6953125,-1000.0,0.0
1734412293.0670798,-909.66796875,-914.55078125,-919.43359375,-1000.0,0.0
1734412293.0738046,790.52734375,939.453125,-911.62109375,-1000.0,0.0
1734412293.0773668,-548.828125,-230.95703125,-945.80078125,-1000.0,0.0
1734412293.080929,-1000.0,-1000.0,-1000.0,-1000.0,0.0
1734412293.084491,228.515625,-10.7421875,-604.98046875,-1000.0,0.0
1734412293.0880532,-920.8984375,-958.984375,-439.94140625,-1000.0,0.0
1734412293.0916154,982.421875,-968.75,-536.62109375,-1000.0,0.0
1734412293.0951774,-165.52734375,-28.80859375,-606.93359375,-1000.0,0.0
1734412293.0987396,-1000.0,-1000.0,-1000.0,-1000.0,0.0
1734412293.1023018,-68.84765625,-176.7578125,-397.4609375,-1000.0,0.0
1734412293.1058638,-975.09765625,996.58203125,125.9765625,-1000.0,0.0
1734412293.109426,-948.2421875,-923.828125,-135.7421875,-1000.0,0.0
1734412293.1129882,9.27734375,124.51171875,-388.18359375,-1000.0,0.0
1734412293.119506,-1000.0,-1000.0,-1000.0,-1000.0,0.0
1734412293.1230824,-178.7109375,-254.8828125,-610.3515625,-1000.0,0.0
1734412293.1266592,995.1171875,976.5625,20.99609375,-1000.0,0.0
1734412293.1302357,-921.875,-917.96875,-124.51171875,-1000.0,0.0
1734412293.1338124,147.94921875,204.1015625,-418.45703125,-1000.0,0.0
1734412293.137389,-1000.0,-1000.0,-1000.0,-1000.0,0.0
1734412293.1409655,-290.52734375,-563.4765625,-729.98046875,-1000.0,0.0
1734412293.1445422,964.84375,817.3828125,160.15625,-1000.0,0.0
1734412293.1481187,-910.64453125,-859.375,505.37109375,-1000.0,0.0
1734412293.1516955,228.515625,186.03515625,24.4140625,-1000.0,0.0
1734412293.155272,-1000.0,-1000.0,-1000.0,-1000.0,0.0
1734412293.1588488,-492.1875,-849.12109375,-812.01171875,-1000.0,0.0
1734412293.1651926,0.0,484.86328125,0.0,-1000.0,0.0
1734412293.168782,0.0,-805.6640625,0.0,-1000.0,0.0
1734412293.1723714,0.0,262.20703125,0.0,-1000.0,0.0
1734412293.1759608,0.0,-1000.0,0.0,-1000.0,0.0
1734412293.1795504,0.0,-818.359375,0.0,-1000.0,0.0
1734412293.1831398,0.0,576.171875,0.0,-1000.0,0.0
1734412293.1867292,0.0,-823.73046875,0.0,-1000.0,0.0
1734412293.1903186,0.0,495.60546875,0.0,-1000.0,0.0
1734412293.193908,0.0,-891.6015625,0.0,-1000.0,0.0
1734412293.1974974,0.0,-1000.0,0.0,-1000.0,0.0
1734412293.2010868,0.0,305.6640625,0.0,-1000.0,0.0
1734412293.2046764,0.0,-878.90625,0.0,-1000.0,0.0
1734412293.2108047,654.296875,818.84765625,-595.703125,-1000.0,0.0
1734412293.2144053,-822.75390625,-508.7890625,-981.4453125,-1000.0,0.0
1734412293.218006,-925.78125,-1000.0,-1000.0,-1000.0,0.0
1734412293.2216065,565.4296875,252.44140625,-911.1328125,-1000.0,0.0
1734412293.2252069,-931.15234375,-946.77734375,-957.51953125,-1000.0,0.0
1734412293.2288074,917.48046875,-966.30859375,-1000.0,-1000.0,0.0
1734412293.232408,-408.203125,-69.82421875,-996.58203125,-1000.0,0.0
1734412293.2360086,-1000.0,-1000.0,-1000.0,-1000.0,0.0
1734412293.2396092,420.8984375,225.09765625,-1000.0,-1000.0,0.0
1734412293.2432098,-953.61328125,-956.54296875,-1000.0,-1000.0,0.0
1734412293.2468104,-964.35546875,-927.734375,-1000.0,-1000.0,0.0
1734412293.2504108,-68.359375,191.89453125,-1000.0,-1000.0,0.0
1734412293.2564762,0.0,-1000.0,0.0,-1000.0,0.0
1734412293.260087,0.0,191.89453125,0.0,-1000.0,0.0
1734412293.2636979,0.0,-942.87109375,0.0,-1000.0,0.0
1734412293.2673087,0.0,-930.17578125,0.0,-1000.0,0.0
1734412293.2709196,0.0,266.11328125,0.0,-1000.0,0.0
1734412293.2745302,0.0,-1000.0,0.0,-1000.0,0.0
1734412293.278141,0.0,199.70703125,0.0,-1000.0,0.0
1734412293.2817519,0.0,-938.4765625,0.0,-1000.0,0.0
1734412293.2853627,0.0,-971.6796875,0.0,-1000.0,0.0
1734412293.2889736,0.0,645.99609375,0.0,-1000.0,0.0
1734412293.2925844,0.0,-854.00390625,0.0,-1000.0,0.0
1734412293.2961953,0.0,137.20703125,0.0,-1000.0,0.0
1734412293.3020947,-939.453125,-880.859375,-909.1796875,-1000.0,0.0
1734412293.3057146,-939.94140625,933.10546875,-1000.0,-1000.0,0.0
1734412293.3093345,338.8671875,966.30859375,-945.3125,-1000.0,0.0
1734412293.3129544,-1000.0,-349.12109375,-1000.0,-1000.0,0.0
1734412293.3165743,83.984375,128.41796875,-469.23828125,-1000.0,0.0
1734412293.3201942,-862.3046875,-840.33203125,-360.3515625,-1000.0,0.0
1734412293.3238142,904.78515625,905.76171875,-994.62890625,-1000.0,0.0
1734412293.327434,963.8671875,971.6796875,-828.61328125,-1000.0,0.0
1734412293.331054,970.21484375,970.21484375,-198.2421875,-1000.0,0.0
1734412293.334674,969.23828125,969.7265625,835.9375,-980.46875,0.0
1734412293.3382938,969.23828125,969.7265625,-994.62890625,-1000.0,0.0
1734412293.341914,969.7265625,970.21484375,932.6171875,-959.9609375,0.0
1734412293.348946,969.7265625,969.7265625,0.0,-693.359375,0.0
1734412293.3525789,969.7265625,970.21484375,0.0,-940.4296875,0.0
1734412293.3562117,966.796875,970.21484375,0.0,-1000.0,0.0
1734412293.3598444,910.64453125,906.73828125,0.0,-915.52734375,0.0
1734412293.3634775,-895.99609375,-891.6015625,0.0,-1000.0,0.0
1734412293.3671103,136.23046875,188.4765625,0.0,-210.44921875,0.0
1734412293.370743,-1000.0,-1000.0,0.0,958.984375,0.0
1734412293.3743758,-1000.0,-1000.0,0.0,-867.67578125,0.0
1734412293.3780086,-259.27734375,-258.30078125,0.0,314.94140625,0.0
1734412293.3816416,-826.66015625,-826.171875,0.0,-979.4921875,0.0
1734412293.3852744,171.38671875,223.14453125,0.0,355.46875,0.0
1734412293.3889072,-1000.0,-1000.0,0.0,-889.16015625,0.0
1734412293.3957853,-1000.0,-1000.0,-1000.0,887.6953125,0.0
1734412293.3994298,-266.11328125,-289.0625,249.0234375,-908.203125,0.0
1734412293.4030745,-831.0546875,-852.05078125,-954.58984375,-245.60546875,0.0
1734412293.406719,389.6484375,498.53515625,-979.4921875,-16.11328125,0.0
1734412293.4103637,-949.21875,-875.0,105.95703125,-835.9375,0.0
1734412293.4140081,-1000.0,-1000.0,-1000.0,864.74609375,0.0
1734412293.4176528,-243.65234375,-394.04296875,-209.9609375,-862.79296875,0.0
1734412293.4212973,-874.51171875,-958.984375,999.51171875,207.51953125,0.0
1734412293.424942,625.0,733.3984375,-976.5625,32.2265625,0.0
1734412293.4285865,-744.140625,-679.6875,20.01953125,-908.69140625,0.0
1734412293.4322312,-1000.0,-1000.0,-1000.0,956.54296875,0.0
1734412293.435876,-576.66015625,-802.734375,-680.6640625,952.1484375,0.0
1734412293.4424505,862.79296875,548.828125,667.96875,971.19140625,0.0
1734412293.4461052,981.4453125,-890.13671875,-882.8125,969.7265625,0.0
1734412293.4497602,-394.53125,-268.5546875,11.71875,969.7265625,0.0
1734412293.453415,-1000.0,-1000.0,-1000.0,969.7265625,0.0
1734412293.4570696,-668.45703125,-884.765625,-781.73828125,970.21484375,0.0
1734412293.4607244,638.671875,349.12109375,507.32421875,970.21484375,0.0
1734412293.464379,-825.1953125,-783.69140625,-851.07421875,970.21484375,0.0
1734412293.468034,198.73046875,150.390625,270.01953125,969.7265625,0.0
1734412293.4716887,-1000.0,-1000.0,-1000.0,969.7265625,0.0
1734412293.4753435,-580.078125,-898.92578125,-769.04296875,969.7265625,0.0
1734412293.4789982,824.21875,418.45703125,594.7265625,969.7265625,0.0
1734412293.4826531,-860.83984375,-788.57421875,-890.625,969.7265625,0.0
1734412293.4889734,196.2890625,154.296875,444.3359375,969.7265625,0.0
1734412293.4926372,-1000.0,-1000.0,-941.40625,969.7265625,0.0
1734412293.4963007,-718.75,-1000.0,-801.26953125,970.21484375,0.0
1734412293.4999645,682.6171875,229.98046875,665.0390625,970.21484375,0.0
1734412293.503628,-886.23046875,-825.1953125,967.7734375,969.7265625,0.0
1734412293.5072918,254.8828125,193.84765625,990.234375,969.7265625,0.0
1734412293.5109553,-1000.0,-971.19140625,-166.50390625,969.7265625,0.0
1734412293.514619,-858.3984375,-1000.0,-830.078125,969.7265625,0.0
1734412293.5182827,507.8125,17.08984375,721.6796875,969.7265625,0.0
1734412293.5219464,-817.87109375,-790.52734375,980.46875,969.7265625,0.0
1734412293.52561,492.1875,470.21484375,-940.4296875,973.14453125,0.0
1734412293.5292737,-881.8359375,-873.53515625,12.6953125,954.1015625,0.0
1734412293.5354455,-1000.0,-1000.0,-849.12109375,931.15234375,0.0
1734412293.539117,165.0390625,-150.390625,653.3203125,-858.3984375,0.0
1734412293.5427887,-822.75390625,-869.140625,-994.140625,-201.171875,0.0
1734412293.5464604,648.92578125,678.22265625,-975.09765625,-329.58984375,0.0
1734412293.550132,-685.05859375,-689.453125,106.4453125,-967.28515625,0.0
1734412293.553804,-1000.0,-1000.0,-1000.0,-989.74609375,0.0
1734412293.5574756,-108.3984375,-204.1015625,149.4140625,823.73046875,0.0
1734412293.5611472,-895.01953125,-937.5,-985.3515625,-643.5546875,0.0
1734412293.5648189,799.31640625,866.2109375,984.86328125,-995.1171875,0.0
1734412293.5684905,-532.2265625,-455.56640625,14.16015625,472.65625,0.0
1734412293.5721624,-1000.0,-1000.0,-1000.0,-791.9921875,0.0
1734412293.575834,-194.82421875,-187.5,-274.4140625,324.70703125,0.0
1734412293.5818288,0.0,-966.30859375,938.96484375,-911.62109375,0.0
1734412293.5855076,0.0,958.984375,443.84765625,-1000.0,0.0
1734412293.5891864,0.0,-295.41015625,-620.60546875,-297.36328125,0.0
1734412293.5928655,0.0,-1000.0,-1000.0,-860.3515625,0.0
1734412293.5965443,0.0,-902.34375,-748.046875,94.7265625,0.0
1734412293.600223,0.0,464.35546875,807.12890625,-1000.0,0.0
1734412293.6039019,0.0,-960.9375,387.20703125,-988.76953125,0.0
1734412293.607581,0.0,-429.19921875,-1000.0,-991.69921875,0.0
1734412293.6112597,0.0,-1000.0,-1000.0,539.55078125,0.0
1734412293.6149385,0.0,-837.890625,-941.89453125,301.7578125,0.0
1734412293.6186175,0.0,407.2265625,197.75390625,-1000.0,0.0
1734412293.6222963,0.0,-791.50390625,-852.5390625,-1000.0,0.0
1734412293.6280968,199.21875,181.640625,155.76171875,-388.18359375,0.0
1734412293.6317818,-1000.0,-1000.0,-1000.0,941.40625,0.0
1734412293.635467,-580.078125,-779.78515625,-750.0,-927.734375,0.0
1734412293.6391523,824.70703125,593.26171875,592.7734375,-126.46484375,0.0
1734412293.6428375,-859.375,-813.4765625,-854.4921875,-1000.0,0.0
1734412293.6465225,190.4296875,163.0859375,333.0078125,-162.109375,0.0
1734412293.6502078,-1000.0,-1000.0,-1000.0,981.4453125,0.0
1734412293.653893,-787.109375,-960.9375,-743.65234375,-909.1796875,0.0
1734412293.6575782,584.47265625,310.546875,724.609375,224.609375,0.0
1734412293.6612632,-812.98828125,-775.390625,994.140625,-1000.0,0.0
1734412293.6649485,164.0625,226.5625,-946.2890625,-202.63671875,0.0
1734412293.6686337,-1000.0,-1000.0,-179.6875,-994.140625,0.0
1734412293.6742265,-952.1484375,-1000.0,-568.84765625,-916.50390625,0.0
1734412293.6779172,329.1015625,89.35546875,968.75,173.33984375,0.0
1734412293.681608,-772.4609375,-767.578125,946.2890625,-1000.0,0.0
1734412293.6852984,233.3984375,304.6875,-915.0390625,-1000.0,0.0
1734412293.6889892,-986.81640625,-947.75390625,283.69140625,48.33984375,0.0
1734412293.69268,-1000.0,-1000.0,-353.02734375,963.37890625,0.0
1734412293.6963706,-55.17578125,-225.5859375,860.3515625,-578.125,0.0
1734412293.700061,-792.48046875,-848.6328125,967.7734375,-1000.0,0.0
1734412293.7037518,433.59375,552.24609375,-921.875,-931.15234375,0.0
1734412293.7074425,-896.97265625,-835.9375,295.41015625,-1000.0,0.0
1734412293.7111332,-1000.0,-1000.0,-1000.0,-1000.0,0.0
1734412293.714824,-229.00390625,-212.890625,169.43359375,-1000.0,0.0
1734412293.7214096,0.0,-931.15234375,-937.01171875,-1000.0,0.0
1734412293.7251084,0.0,841.796875,-985.83984375,-1000.0,0.0
1734412293.728807,0.0,-493.1640625,49.8046875,-1000.0,0.0
1734412293.7325058,0.0,-1000.0,-1000.0,-1000.0,0.0
1734412293.7362044,0.0,-176.26953125,-260.7421875,-1000.0,0.0
1734412293.7399032,0.0,-992.67578125,-992.1875,-1000.0,0.0
1734412293.7436018,0.0,-974.12109375,847.65625,-1000.0,0.0
1734412293.7473006,0.0,-123.046875,-342.7734375,-1000.0,0.0
1734412293.7509992,0.0,-1000.0,-1000.0,-1000.0,0.0
1734412293.754698,0.0,-365.234375,-960.9375,-1000.0,0.0
1734412293.7583966,0.0,912.109375,-374.51171875,-1000.0,0.0
1734412293.7620955,0.0,-897.4609375,-469.23828125,-1000.0,0.0
1734412293.768473,23.4375,113.76953125,-1000.0,-1000.0,0.0
1734412293.7721786,-1000.0,-1000.0,-989.74609375,-1000.0,0.0
1734412293.7758846,-371.58203125,-498.53515625,-990.234375,-1000.0,0.0
1734412293.7795906,914.55078125,858.3984375,-1000.0,-1000.0,0.0
1734412293.7832963,-890.13671875,-870.60546875,-1000.0,-1000.0,0.0
1734412293.7870023,220.703125,209.9609375,-1000.0,-1000.0,0.0
1734412293.7907083,-1000.0,-1000.0,-1000.0,-1000.0,0.0
1734412293.7944143,-487.3046875,-573.2421875,-1000.0,-1000.0,0.0
1734412293.79812,883.30078125,816.40625,-986.81640625,-1000.0,0.0
1734412293.801826,-879.39453125,-860.3515625,-996.09375,-1000.0,0.0
1734412293.805532,213.37890625,244.62890625,-998.046875,-1000.0,0.0
1734412293.8092377,-1000.0,-1000.0,-1000.0,-1000.0,0.0
1734412293.8153865,-545.41015625,-673.828125,-1000.0,-1000.0,0.0
1734412293.8190987,837.40234375,713.8671875,-899.4140625,-1000.0,0.0
1734412293.822811,-862.79296875,-838.37890625,-934.5703125,-1000.0,0.0
1734412293.8265233,287.109375,373.046875,-990.72265625,-1000.0,0.0
1734412293.8302355,-1000.0,-991.69921875,-989.74609375,-1000.0,0.0
1734412293.833948,-848.14453125,-977.05078125,-1000.0,-1000.0,0.0
1734412293.83766,504.8828125,336.42578125,-798.828125,-1000.0,0.0
1734412293.8413723,-809.5703125,-802.24609375,-797.8515625,-1000.0,0.0
1734412293.8450847,437.98828125,511.23046875,-1000.0,-1000.0,0.0
1734412293.8487968,-918.9453125,-851.07421875,-980.95703125,-1000.0,0.0
1734412293.852509,-1000.0,-1000.0,-1000.0,-1000.0,0.0
1734412293.8562214,173.828125,83.0078125,-789.55078125,-1000.0,0.0
1734412293.8622425,-821.77734375,-858.88671875,-732.91015625,-1000.0,0.0
1734412293.8659606,655.2734375,762.6953125,-1000.0,-1000.0,0.0
1734412293.8696787,-695.80078125,-553.22265625,-983.3984375,-1000.0,0.0
1734412293.8733969,-1000.0,-1000.0,-1000.0,-1000.0,0.0
1734412293.8771148,12.20703125,-67.87109375,-879.39453125,-1000.0,0.0
1734412293.880833,-910.64453125,-955.56640625,-789.0625,-1000.0,0.0
1734412293.884551,904.296875,994.62890625,-1000.0,-1000.0,0.0
1734412293.8882692,-359.86328125,-191.40625,-995.60546875,-1000.0,0.0
1734412293.8919873,-1000.0,-1000.0,-1000.0,-1000.0,0.0
1734412293.8957055,-65.4296875,-154.78515625,-933.59375,-1000.0,0.0
1734412293.8994234,-980.46875,993.1640625,-882.8125,-1000.0,0.0
1734412293.9031415,-948.73046875,-922.8515625,-1000.0,-1000.0,0.0
1734412293.908971,-6.8359375,82.51953125,-1000.0,-1000.0,0.0
1734412293.9126945,-1000.0,-1000.0,-996.58203125,-1000.0,0.0
1734412293.9164176,-135.25390625,-182.6171875,-1000.0,-1000.0,0.0
1734412293.920141,997.0703125,995.1171875,-1000.0,-1000.0,0.0
1734412293.9238641,-913.57421875,-911.62109375,-1000.0,-1000.0,0.0
1734412293.9275875,223.6328125,224.609375,-1000.0,-1000.0,0.0
1734412293.9313107,-1000.0,-1000.0,-1000.0,-1000.0,0.0
1734412293.935034,-160.64453125,-202.63671875,-1000.0,-1000.0,0.0
1734412293.9387572,-983.88671875,-994.62890625,-1000.0,-1000.0,0.0
1734412293.9424806,-921.875,-916.50390625,-1000.0,-1000.0,0.0
1734412293.946204,227.5390625,226.07421875,-1000.0,-1000.0,0.0
1734412293.949927,-1000.0,-1000.0,-1000.0,-1000.0,0.0
1734412293.9555957,-202.63671875,-227.05078125,-1000.0,-1000.0,0.0
1734412293.9593236,-995.1171875,996.58203125,-1000.0,-1000.0,0.0
1734412293.9630516,-925.29296875,-924.31640625,-1000.0,-1000.0,0.0
1734412293.9667795,234.375,244.140625,-1000.0,-1000.0,0.0
1734412293.9705074,-1000.0,-1000.0,-1000.0,-1000.0,0.0
1734412293.9742353,-396.97265625,-508.7890625,-1000.0,-1000.0,0.0
1734412293.977963,927.24609375,858.3984375,-1000.0,-1000.0,0.0
1734412293.981691,-896.484375,-872.55859375,-1000.0,-977.5390625,0.0
1734412293.9854188,250.9765625,347.65625,-1000.0,-1000.0,0.0
1734412293.9891467,-1000.0,-1000.0,-1000.0,-746.09375,0.0
1734412293.9928746,-634.765625,-804.6875,-1000.0,-559.5703125,0.0
1734412293.9966025,748.53515625,579.58984375,-1000.0,-1000.0,0.0
1734412294.0021427,-855.46875,-845.703125,-1000.0,-944.82421875,0.0
1734412294.0058746,471.19140625,582.51953125,-1000.0,-1000.0,0.0
1734412294.0096068,-984.375,-851.5625,-1000.0,-373.046875,0.0
1734412294.013339,-881.8359375,-1000.0,-1000.0,166.015625,0.0
1734412294.017071,529.78515625,398.92578125,-1000.0,-1000.0,0.0
1734412294.0208032,-857.421875,-883.30078125,-1000.0,-964.35546875,0.0
1734412294.0245352,665.52734375,814.94140625,-1000.0,-1000.0,0.0
1734412294.0282674,-710.9375,-478.02734375,-1000.0,-165.0390625,0.0
1734412294.0319993,-1000.0,-1000.0,-1000.0,751.953125,0.0
1734412294.0357316,204.58984375,89.35546875,-1000.0,-761.23046875,0.0
1734412294.0394635,-871.58203125,-925.78125,-1000.0,-1000.0,0.0
1734412294.0431957,825.68359375,973.6328125,-1000.0,-1000.0,0.0
1734412294.0494993,-439.94140625,-187.01171875,-1000.0,-235.3515625,0.0
1734412294.0532372,-1000.0,-1000.0,-1000.0,-871.58203125,0.0
1734412294.056975,-50.29296875,-130.859375,-1000.0,-180.6640625,0.0
1734412294.0607128,994.62890625,974.12109375,-1000.0,-1000.0,0.0
1734412294.0644507,-923.828125,-913.0859375,-1000.0,-937.01171875,0.0
1734412294.0681887,231.93359375,381.34765625,-1000.0,-998.046875,0.0
1734412294.0719266,-1000.0,-1000.0,-1000.0,-992.67578125,0.0
1734412294.0756645,-201.66015625,-229.4921875,-1000.0,-996.09375,0.0
1734412294.0794024,-946.77734375,-917.96875,-1000.0,-1000.0,0.0
1734412294.0831401,915.0390625,881.8359375,-1000.0,-1000.0,0.0
1734412294.086878,-896.484375,-862.3046875,-1000.0,-1000.0,0.0
1734412294.090616,-126.46484375,84.9609375,-1000.0,-1000.0,0.0
1734412294.09674,-133.30078125,-213.37890625,-1000.0,-1000.0,0.0
1734412294.1004832,-869.140625,-929.19921875,-1000.0,-1000.0,0.0
1734412294.1042264,937.98828125,973.14453125,-1000.0,-1000.0,0.0
1734412294.1079695,955.078125,940.4296875,-1000.0,-1000.0,0.0
1734412294.1117125,971.6796875,975.09765625,-1000.0,-1000.0,0.0
1734412294.1154556,969.7265625,969.7265625,-1000.0,-1000.0,0.0
1734412294.1191988,969.23828125,969.7265625,-1000.0,-1000.0,0.0
1734412294.122942,969.23828125,970.21484375,-1000.0,-1000.0,0.0
1734412294.1266851,969.23828125,970.21484375,-1000.0,-1000.0,0.0
1734412294.130428,969.23828125,970.21484375,-1000.0,-1000.0,0.0
1734412294.1341712,969.23828125,969.7265625,-1000.0,-1000.0,0.0
1734412294.1379144,969.23828125,969.7265625,-1000.0,-1000.0,0.0
1734412294.143862,969.23828125,969.7265625,-1000.0,-998.53515625,0.0
1734412294.1476097,969.7265625,969.7265625,-1000.0,-999.51171875,0.0
1734412294.1513577,969.23828125,969.7265625,-1000.0,-1000.0,0.0
1734412294.1551056,969.23828125,969.7265625,-1000.0,-1000.0,0.0
1734412294.1588533,969.7265625,969.7265625,-1000.0,-1000.0,0.0
1734412294.1626012,969.23828125,970.21484375,-1000.0,-1000.0,0.0
1734412294.166349,969.23828125,969.7265625,-1000.0,-1000.0,0.0
1734412294.1700969,969.23828125,969.7265625,-1000.0,-1000.0,0.0
1734412294.1738446,969.23828125,970.21484375,-1000.0,-1000.0,0.0
1734412294.1775925,969.7265625,970.21484375,-1000.0,-1000.0,0.0
1734412294.1813402,969.23828125,970.21484375,-1000.0,-1000.0,0.0
1734412294.1850882,979.98046875,980.95703125,-1000.0,-1000.0,0.0
1734412294.1908593,927.734375,928.7109375,-1000.0,-964.84375,0.0
1734412294.1946115,987.3046875,987.79296875,-929.19921875,-1000.0,0.0
1734412294.1983635,943.359375,943.84765625,-1000.0,-957.51953125,0.0
1734412294.2021155,-402.34375,-402.34375,-424.31640625,320.80078125,0.0
1734412294.2058675,-1000.0,-1000.0,953.125,-908.203125,0.0
1734412294.2096198,-933.59375,-933.59375,990.234375,908.69140625,0.0
1734412294.2133718,-1000.0,-1000.0,925.78125,972.65625,0.0
1734412294.2171237,-1000.0,-1000.0,981.93359375,969.7265625,0.0
1734412294.2208757,-1000.0,-1000.0,969.7265625,969.7265625,0.0
1734412294.224628,-1000.0,-1000.0,970.21484375,969.7265625,0.0
1734412294.22838,-1000.0,-1000.0,969.7265625,969.7265625,0.0
1734412294.232132,-1000.0,-1000.0,969.7265625,970.21484375,0.0
1734412294.2377155,-1000.0,-1000.0,969.7265625,969.7265625,0.0
1734412294.2414713,-1000.0,-1000.0,969.7265625,969.7265625,0.0
1734412294.245227,-1000.0,-1000.0,969.7265625,969.7265625,0.0
1734412294.248983,-1000.0,-1000.0,969.7265625,969.7265625,0.0
1734412294.2527385,-1000.0,-1000.0,969.7265625,969.7265625,0.0
1734412294.2564943,-1000.0,-1000.0,969.7265625,970.21484375,0.0
1734412294.26025,-1000.0,-1000.0,970.21484375,969.7265625,0.0
1734412294.264006,-1000.0,-1000.0,969.7265625,969.7265625,0.0
1734412294.2677617,-1000.0,-1000.0,969.7265625,969.7265625,0.0
1734412294.2715175,-1000.0,-1000.0,969.7265625,969.7265625,0.0
1734412294.275273,-1000.0,-1000.0,970.21484375,969.7265625,0.0
1734412294.279029,-1000.0,-1000.0,969.7265625,969.7265625,0.0
1734412294.2844532,-1000.0,-1000.0,969.7265625,970.21484375,0.0
1734412294.2882123,-1000.0,-1000.0,969.7265625,969.7265625,0.0
1734412294.2919712,-1000.0,-1000.0,969.7265625,969.7265625,0.0
1734412294.2957304,-1000.0,-1000.0,967.28515625,969.7265625,0.0
1734412294.2994895,-1000.0,-1000.0,958.49609375,969.7265625,0.0
1734412294.3032486,-1000.0,-1000.0,951.171875,969.7265625,0.0
1734412294.3070076,-985.3515625,-987.3046875,956.54296875,984.375,0.0
1734412294.3107667,-945.80078125,-945.3125,958.49609375,904.78515625,0.0
1734412294.3145258,-1000.0,-1000.0,952.63671875,-938.4765625,0.0
1734412294.3182847,143.5546875,47.36328125,967.7734375,747.0703125,0.0
1734412294.322044,675.29296875,925.29296875,970.703125,-852.5390625,0.0
1734412294.325803,-884.765625,-580.56640625,944.3359375,-158.203125,0.0
1734412294.331187,-1000.0,-1000.0,953.125,-942.3828125,0.0
1734412294.334949,-794.921875,-868.65234375,967.7734375,-951.66015625,0.0
1734412294.3387113,498.046875,407.2265625,965.33203125,498.046875,0.0
1734412294.3424735,-935.05859375,-961.9140625,953.61328125,-905.76171875,0.0
1734412294.3462358,963.37890625,-960.9375,-979.00390625,-1000.0,0.0
1734412294.349998,-186.03515625,112.3046875,715.8203125,-1000.0,0.0
1734412294.3537602,-1000.0,-1000.0,544.43359375,-446.2890625,0.0
1734412294.3575225,-35.15625,-26.85546875,938.96484375,-597.65625,0.0
1734412294.3612847,-993.65234375,-967.28515625,937.01171875,-1000.0,0.0
1734412294.365047,-926.26953125,-933.59375,-981.93359375,-962.40234375,0.0
1734412294.3688092,233.3984375,236.328125,793.9453125,-1000.0,0.0
1734412294.3725715,-1000.0,-1000.0,-722.16796875,-1000.0,0.0
1734412294.377818,-208.984375,-203.61328125,-227.5390625,-1000.0,0.0
1734412294.381583,-986.81640625,-993.1640625,-962.40234375,-1000.0,0.0
1734412294.385348,-923.33984375,-916.015625,-924.31640625,-1000.0,0.0
1734412294.3891132,122.55859375,208.984375,356.4453125,-1000.0,0.0
1734412294.3928783,-1000.0,-1000.0,-1000.0,-1000.0,0.0
1734412294.3966432,-187.98828125,-200.1953125,-216.30859375,-1000.0,0.0
1734412294.4004083,997.0703125,-995.60546875,-993.1640625,-1000.0,0.0
1734412294.4041734,-913.0859375,-922.36328125,-922.36328125,-1000.0,0.0
1734412294.4079385,224.12109375,232.91015625,402.83203125,-1000.0,0.0
1734412294.4117033,-1000.0,-1000.0,-1000.0,-1000.0,0.0
1734412294.4154685,-202.63671875,-354.98046875,-258.7890625,-1000.0,0.0
1734412294.4192336,-995.1171875,949.21875,-1000.0,-1000.0,0.0
1734412294.4243577,-929.6875,-904.296875,-930.6640625,-1000.0,0.0
1734412294.4281251,236.328125,216.30859375,369.62890625,-1000.0,0.0
1734412294.4318929,-1000.0,-1000.0,-1000.0,-1000.0,0.0
1734412294.4356604,-534.66796875,-694.82421875,-685.546875,-1000.0,0.0
1734412294.4394279,853.515625,699.70703125,728.02734375,-1000.0,0.0
1734412294.4431956,-868.1640625,-829.1015625,-841.30859375,-1000.0,0.0
1734412294.446963,188.4765625,160.64453125,320.3125,-1000.0,0.0
1734412294.4507306,-1000.0,-1000.0,-1000.0,-1000.0,0.0
1734412294.454498,-839.84375,-998.046875,-968.75,-1000.0,0.0
1734412294.4582658,502.9296875,240.72265625,337.40234375,-1000.0,0.0
1734412294.4620333,-796.38671875,-768.5546875,-780.2734375,-1000.0,0.0
1734412294.4658008,248.046875,262.6953125,289.55078125,-1000.0,0.0
1734412294.471593,-1000.0,-990.72265625,-944.3359375,-1000.0,0.0
1734412294.475364,-1000.0,-1000.0,-1000.0,-1000.0,0.0
1734412294.4791353,148.92578125,30.2734375,-202.1484375,-1000.0,0.0
1734412294.4829066,-773.4375,-787.109375,-823.73046875,-1000.0,0.0
1734412294.4866776,427.24609375,466.30859375,378.90625,-1000.0,0.0
1734412294.490449,-902.83203125,-871.58203125,-944.3359375,-1000.0,0.0
1734412294.4942203,-1000.0,-1000.0,-1000.0,-1000.0,0.0
1734412294.4979913,-36.1328125,-178.7109375,-233.88671875,-1000.0,0.0
1734412294.5017626,-819.3359375,-870.60546875,-891.6015625,-1000.0,0.0
1734412294.505534,569.82421875,666.9921875,653.80859375,-1000.0,0.0
1734412294.509305,-788.57421875,-711.9140625,-673.33984375,-1000.0,0.0
1734412294.5130763,-1000.0,-1000.0,-1000.0,-1000.0,0.0
1734412294.5187216,-201.171875,-193.359375,-191.89453125,-1000.0,0.0
1734412294.5224962,-957.51953125,-966.30859375,-973.6328125,-1000.0,0.0
1734412294.5262709,926.26953125,956.0546875,937.98828125,-1000.0,0.0
1734412294.5300453,-366.69921875,-309.08203125,-229.4921875,-1000.0,0.0
1734412294.53382,-1000.0,-1000.0,-1000.0,-1000.0,0.0
1734412294.5375943,-165.0390625,-165.0390625,-474.12109375,-1000.0,0.0
1734412294.541369,989.74609375,990.72265625,871.58203125,-1000.0,0.0
1734412294.5451436,-935.05859375,-938.96484375,-924.31640625,-1000.0,0.0
1734412294.548918,26.3671875,49.8046875,-78.61328125,-1000.0,0.0
1734412294.5526927,-1000.0,-1000.0,-1000.0,-1000.0,0.0
1734412294.556467,-275.87890625,-421.875,-676.26953125,-1000.0,0.0
1734412294.5602417,-981.4453125,954.58984375,721.19140625,-1000.0,0.0
1734412294.5657482,966.796875,994.140625,-948.73046875,-1000.0,0.0
1734412294.569526,934.08203125,922.8515625,899.90234375,-1000.0,0.0
1734412294.5733035,979.00390625,983.3984375,941.89453125,-1000.0,0.0
1734412294.577081,969.23828125,969.7265625,947.265625,-1000.0,0.0
1734412294.5808585,969.23828125,969.7265625,973.14453125,-1000.0,0.0
1734412294.5846362,969.23828125,970.21484375,968.75,-1000.0,0.0
1734412294.5884137,969.23828125,970.21484375,970.21484375,-996.58203125,0.0
1734412294.5921912,969.23828125,970.21484375,969.23828125,-944.3359375,0.0
1734412294.5959687,970.21484375,970.703125,969.23828125,-1000.0,0.0
1734412294.5997462,963.37890625,967.28515625,969.23828125,-213.37890625,0.0
1734412294.603524,910.15625,897.94921875,969.23828125,-851.07421875,0.0
1734412294.6073015,-832.03125,-822.75390625,971.6796875,666.50390625,0.0
1734412294.6127417,-65.4296875,11.71875,946.77734375,-955.078125,0.0
1734412294.616522,-402.34375,-623.046875,938.4765625,-660.15625,0.0
1734412294.6203024,966.30859375,843.26171875,960.44921875,812.01171875,0.0
1734412294.6240828,-908.69140625,-891.6015625,954.1015625,-875.9765625,0.0
1734412294.6278632,622.0703125,709.9609375,999.51171875,548.33984375,0.0
1734412294.6316435,-774.4140625,-583.0078125,571.77734375,-782.2265625,0.0
1734412294.635424,-1000.0,-1000.0,238.28125,-1000.0,0.0
1734412294.6392045,-20.99609375,-202.63671875,802.734375,-155.2734375,0.0
1734412294.6429849,-790.0390625,-834.47265625,970.703125,-880.859375,0.0
1734412294.6467652,242.1875,405.2734375,-987.79296875,76.66015625,0.0
1734412294.6505456,-979.00390625,-916.015625,26.85546875,-1000.0,0.0
1734412294.654326,-1000.0,-1000.0,-1000.0,-1000.0,0.0
1734412294.6596093,-346.6796875,-537.59765625,-203.61328125,-710.9375,0.0
1734412294.6633923,-864.2578125,-968.26171875,-992.1875,884.765625,0.0
1734412294.667175,176.7578125,283.203125,727.05078125,213.37890625,0.0
1734412294.670958,-1000.0,-1000.0,-387.6953125,-1000.0,0.0
1734412294.674741,-999.51171875,-946.2890625,-1000.0,-928.22265625,0.0
1734412294.6785238,-985.3515625,-1000.0,-924.31640625,-1000.0,0.0
1734412294.6823068,541.015625,198.2421875,345.703125,132.8125,0.0
1734412294.6860895,311.03515625,336.9140625,561.03515625,223.14453125,0.0
1734412294.6898725,-1000.0,-1000.0,-762.6953125,-1000.0,0.0
1734412294.6936553,-915.0390625,-945.3125,-1000.0,-983.3984375,0.0
1734412294.6974382,-1000.0,-1000.0,-1000.0,-983.3984375,0.0
1734412294.7012212,-91.30859375,-537.109375,-377.44140625,-955.56640625,0.0
1734412294.7063704,213.8671875,-177.734375,183.59375,-966.30859375,0.0
1734412294.7101555,-1000.0,-1000.0,-760.7421875,-1000.0,0.0
1734412294.7139406,-1000.0,-1000.0,-1000.0,-997.0703125,0.0
1734412294.7177258,-969.7265625,-970.21484375,-986.328125,-1000.0,0.0
1734412294.721511,-1000.0,-1000.0,-924.31640625,-1000.0,0.0
1734412294.725296,-1000.0,-1000.0,-805.17578125,-1000.0,0.0
1734412294.7290812,-1000.0,-1000.0,-976.5625,-1000.0,0.0
1734412294.7328663,-1000.0,-1000.0,-1000.0,-1000.0,0.0
1734412294.7366514,-1000.0,-1000.0,-992.1875,-1000.0,0.0
1734412294.7404366,-1000.0,-1000.0,-1000.0,-1000.0,0.0
1734412294.7442217,-1000.0,-1000.0,-1000.0,-1000.0,0.0
1734412294.7480068,-1000.0,-1000.0,-1000.0,-1000.0,0.0
1734412294.753052,-1000.0,-1000.0,-1000.0,-949.70703125,0.0
1734412294.7568393,-1000.0,-1000.0,-1000.0,-1000.0,0.0
1734412294.7606263,-1000.0,-1000.0,-1000.0,-875.0,0.0
1734412294.7644136,-1000.0,-1000.0,-1000.0,55.6640625,0.0
1734412294.7682006,-1000.0,-1000.0,-1000.0,-524.90234375,0.0
1734412294.7719877,-928.7109375,-963.8671875,-1000.0,-1000.0,0.0
1734412294.775775,-1000.0,-1000.0,-1000.0,-142.08984375,0.0
1734412294.779562,-390.13671875,-965.8203125,-1000.0,-963.8671875,0.0
1734412294.7833493,916.9921875,307.12890625,-1000.0,951.171875,0.0
1734412294.7871363,-819.82421875,-890.13671875,-1000.0,943.84765625,0.0
1734412294.7909236,-54.6875,-159.1796875,-1000.0,976.07421875,0.0
1734412294.7947106,-335.9375,-1000.0,-1000.0,969.7265625,0.0
1734412294.7996688,0.0,-20.5078125,-1000.0,970.21484375,0.0
1734412294.8034577,0.0,-923.33984375,-1000.0,969.7265625,0.0
1734412294.8072467,0.0,932.6171875,-1000.0,969.7265625,0.0
1734412294.8110356,0.0,953.125,-1000.0,969.7265625,0.0
1734412294.8148246,0.0,974.12109375,-1000.0,969.7265625,0.0
1734412294.8186135,0.0,969.7265625,-1000.0,969.7265625,0.0
1734412294.8224025,0.0,969.7265625,-1000.0,969.7265625,0.0
1734412294.8261917,0.0,969.7265625,-1000.0,969.7265625,0.0
1734412294.8299806,0.0,970.21484375,-1000.0,969.7265625,0.0
1734412294.8337696,0.0,969.7265625,-1000.0,969.7265625,0.0
1734412294.8375585,0.0,969.7265625,-1000.0,969.7265625,0.0
1734412294.8413475,0.0,969.7265625,-1000.0,969.7265625,0.0
1734412294.8469439,969.23828125,969.7265625,-1000.0,969.7265625,0.0
1734412294.8507357,969.23828125,969.7265625,-1000.0,970.21484375,0.0
1734412294.8545275,969.23828125,970.21484375,-1000.0,969.7265625,0.0
1734412294.8583193,969.23828125,969.7265625,-1000.0,969.7265625,0.0
1734412294.862111,969.23828125,969.7265625,-1000.0,970.21484375,0.0
1734412294.865903,969.23828125,970.21484375,-1000.0,969.7265625,0.0
1734412294.8696945,969.23828125,970.21484375,-1000.0,969.7265625,0.0
1734412294.8734863,969.23828125,970.21484375,-1000.0,969.7265625,0.0
1734412294.877278,969.23828125,969.7265625,-1000.0,969.7265625,0.0
1734412294.88107,969.23828125,969.7265625,-1000.0,969.7265625,0.0
1734412294.8848617,969.23828125,969.7265625,-1000.0,969.7265625,0.0
1734412294.8886535,969.23828125,969.7265625,-1000.0,969.7265625,0.0
1734412294.894062,969.23828125,969.7265625,-1000.0,969.7265625,0.0
1734412294.8978562,969.23828125,970.21484375,-1000.0,969.7265625,0.0
1734412294.9016504,969.23828125,969.7265625,-1000.0,969.7265625,0.0
1734412294.9054449,969.7265625,970.21484375,-1000.0,970.21484375,0.0
1734412294.909239,969.23828125,969.7265625,-1000.0,969.7265625,0.0
1734412294.9130332,969.23828125,969.7265625,-1000.0,969.7265625,0.0
1734412294.9168274,969.23828125,970.21484375,-1000.0,969.7265625,0.0
1734412294.9206216,969.23828125,969.7265625,-1000.0,969.7265625,0.0
1734412294.9244158,969.7265625,970.21484375,-1000.0,970.21484375,0.0
1734412294.92821,969.23828125,970.21484375,-1000.0,969.7265625,0.0
1734412294.9320042,969.23828125,969.7265625,-1000.0,969.7265625,0.0
1734412294.9357984,969.23828125,969.7265625,-1000.0,969.7265625,0.0
1734412294.9410994,969.23828125,969.7265625,-1000.0,969.7265625,0.0
1734412294.9448957,969.23828125,969.7265625,-1000.0,969.7265625,0.0
1734412294.9486923,969.23828125,970.21484375,-1000.0,970.21484375,0.0
1734412294.9524887,969.23828125,970.21484375,-1000.0,969.7265625,0.0
1734412294.9562852,969.23828125,970.21484375,-1000.0,969.7265625,0.0
1734412294.9600816,969.23828125,969.7265625,-1000.0,969.7265625,0.0
1734412294.9638782,969.23828125,970.21484375,-1000.0,970.21484375,0.0
1734412294.9676745,969.23828125,970.21484375,-1000.0,969.7265625,0.0
1734412294.971471,969.23828125,969.7265625,-1000.0,969.7265625,0.0
1734412294.9752674,969.23828125,969.7265625,-1000.0,970.21484375,0.0
1734412294.979064,969.23828125,969.7265625,-1000.0,969.7265625,0.0
1734412294.9828603,969.23828125,969.7265625,-1000.0,969.7265625,0.0
1734412294.9880433,969.23828125,970.21484375,-1000.0,969.7265625,0.0
1734412294.9918418,969.23828125,969.7265625,-1000.0,969.7265625,0.0
1734412294.9956403,969.23828125,969.7265625,-1000.0,969.7265625,0.0
1734412294.9994388,969.23828125,970.21484375,-1000.0,969.7265625,0.0
1734412295.0032375,969.23828125,969.7265625,-1000.0,969.7265625,0.0
1734412295.007036,969.23828125,969.7265625,-1000.0,969.7265625,0.0
1734412295.0108345,969.23828125,969.7265625,-1000.0,969.7265625,0.0
1734412295.014633,969.23828125,969.7265625,-1000.0,969.7265625,0.0
1734412295.0184314,969.23828125,969.7265625,-1000.0,969.7265625,0.0
1734412295.02223,969.23828125,969.7265625,-1000.0,969.7265625,0.0
1734412295.0260284,969.23828125,969.7265625,-1000.0,970.21484375,0.0
1734412295.0298269,969.23828125,969.7265625,-1000.0,969.7265625,0.0
1734412295.0349169,969.23828125,969.7265625,-1000.0,969.7265625,0.0
1734412295.0387173,969.23828125,969.7265625,-1000.0,970.21484375,0.0
1734412295.0425174,969.23828125,969.7265625,-1000.0,969.7265625,0.0
1734412295.0463178,969.23828125,969.7265625,-1000.0,969.7265625,0.0
1734412295.0501182,969.23828125,969.7265625,-1000.0,969.7265625,0.0
1734412295.0539186,969.23828125,969.7265625,-1000.0,969.7265625,0.0
1734412295.057719,969.23828125,970.21484375,-1000.0,969.7265625,0.0
1734412295.0615194,969.23828125,969.7265625,-1000.0,969.7265625,0.0
1734412295.0653195,969.23828125,969.7265625,-998.046875,969.7265625,0.0
1734412295.06912,969.23828125,969.7265625,-995.60546875,969.23828125,0.0
1734412295.0729203,969.23828125,970.21484375,-1000.0,969.7265625,0.0
1734412295.0767207,969.23828125,969.7265625,-999.0234375,969.7265625,0.0
1734412295.0816772,969.23828125,969.7265625,-1000.0,969.7265625,0.0
1734412295.0854793,969.23828125,970.21484375,-989.2578125,969.7265625,0.0
1734412295.0892813,969.7265625,969.7265625,-979.98046875,969.7265625,0.0
1734412295.0930831,969.7265625,970.21484375,-1000.0,969.7265625,0.0
1734412295.0968852,969.7265625,970.21484375,-1000.0,979.4921875,0.0
1734412295.1006873,974.609375,970.21484375,-1000.0,928.22265625,0.0
1734412295.104489,946.77734375,970.21484375,-993.65234375,995.60546875,0.0
1734412295.1082911,944.82421875,970.21484375,-987.3046875,892.578125,0.0
1734412295.112093,-949.21875,969.7265625,-1000.0,-418.9453125,0.0
1734412295.115895,-153.80859375,973.14453125,-1000.0,-1000.0,0.0
1734412295.119697,-1000.0,959.9609375,-1000.0,-940.91796875,0.0
1734412295.123499,-944.82421875,933.10546875,-1000.0,-1000.0,0.0
1734412295.1284075,-996.58203125,-963.37890625,-1000.0,-1000.0,0.0
1734412295.132211,-1000.0,61.03515625,-1000.0,-1000.0,0.0
1734412295.1360147,-1000.0,-1000.0,-1000.0,-1000.0,0.0
1734412295.1398182,-933.10546875,-916.015625,-1000.0,-1000.0,0.0
1734412295.1436217,-1000.0,-1000.0,-1000.0,-1000.0,0.0
1734412295.1474252,-291.9921875,-332.03125,-973.6328125,-1000.0,0.0
1734412295.1512287,-983.88671875,993.65234375,-994.140625,-1000.0,0.0
1734412295.1550322,964.84375,973.14453125,-690.91796875,-1000.0,0.0
1734412295.1588356,936.5234375,934.08203125,156.73828125,-1000.0,0.0
1734412295.1626391,978.02734375,979.4921875,397.4609375,-1000.0,0.0
1734412295.1664426,969.23828125,969.7265625,386.23046875,-1000.0,0.0
1734412295.1702461,969.23828125,969.7265625,181.640625,-1000.0,0.0
1734412295.175059,968.75,969.7265625,-186.5234375,-1000.0,0.0
1734412295.178864,969.23828125,969.7265625,145.99609375,-1000.0,0.0
1734412295.182669,969.23828125,969.7265625,53.22265625,-1000.0,0.0
1734412295.1864736,969.23828125,969.7265625,167.96875,-1000.0,0.0
1734412295.1902785,969.23828125,969.7265625,335.44921875,-1000.0,0.0
1734412295.1940835,969.23828125,970.21484375,-96.6796875,-1000.0,0.0
1734412295.1978884,969.23828125,969.7265625,-178.22265625,-1000.0,0.0
1734412295.2016933,969.23828125,969.7265625,-524.4140625,-1000.0,0.0
1734412295.2054982,969.23828125,969.7265625,-709.9609375,-1000.0,0.0
1734412295.2093031,969.23828125,970.21484375,-708.0078125,-1000.0,0.0
1734412295.213108,969.23828125,969.7265625,-895.01953125,-1000.0,0.0
1734412295.2169127,968.75,969.7265625,-692.3828125,-1000.0,0.0
1734412295.2222464,968.75,969.7265625,-671.875,-1000.0,0.0
1734412295.2260535,969.23828125,969.7265625,-369.62890625,-1000.0,0.0
1734412295.2298603,969.23828125,969.7265625,309.5703125,-1000.0,0.0
1734412295.2336674,969.23828125,970.21484375,180.6640625,-1000.0,0.0
1734412295.2374742,969.23828125,970.21484375,130.37109375,-1000.0,0.0
1734412295.2412813,969.23828125,969.7265625,-76.171875,-1000.0,0.0
1734412295.245088,970.703125,976.07421875,-475.09765625,-1000.0,0.0
1734412295.2488952,905.76171875,942.87109375,-408.69140625,-1000.0,0.0
1734412295.252702,-891.6015625,966.30859375,-636.23046875,-1000.0,0.0
1734412295.256509,204.1015625,958.49609375,-821.77734375,-1000.0,0.0
1734412295.260316,-1000.0,-211.9140625,-943.359375,-1000.0,0.0
1734412295.264123,-986.81640625,-1000.0,-1000.0,-1000.0,0.0
1734412295.2800736,-972.16796875,-957.51953125,-996.09375,-1000.0,0.0
1734412295.2838967,-1000.0,-993.65234375,-999.51171875,-1000.0,0.0
1734412295.2877197,-1000.0,-1000.0,-1000.0,-1000.0,0.0
1734412295.2915428,-1000.0,-1000.0,-1000.0,-1000.0,0.0
1734412295.2953658,-1000.0,-1000.0,-1000.0,-1000.0,0.0
1734412295.2991886,-1000.0,-1000.0,-1000.0,-1000.0,0.0
1734412295.3030117,-1000.0,-1000.0,-1000.0,-1000.0,0.0
1734412295.3068347,-1000.0,-1000.0,-999.0234375,-1000.0,0.0
1734412295.3106577,-1000.0,-1000.0,-1000.0,-1000.0,0.0
1734412295.3144808,-980.46875,-970.703125,-999.0234375,-1000.0,0.0
1734412295.3183038,-971.19140625,-1000.0,-918.45703125,-1000.0,0.0
1734412295.3221269,-1000.0,-883.30078125,-918.9453125,-1000.0,0.0
1734412295.3356898,93.26171875,266.11328125,-833.984375,-1000.0,0.0
1734412295.3395255,-901.3671875,-960.9375,-583.984375,-1000.0,0.0
1734412295.3433611,915.52734375,934.08203125,-513.671875,-1000.0,0.0
1734412295.3471968,963.8671875,962.40234375,24.4140625,-1000.0,0.0
1734412295.3510325,970.21484375,972.65625,391.11328125,-1000.0,0.0
1734412295.3548684,969.23828125,969.7265625,307.6171875,-1000.0,0.0
1734412295.358704,969.23828125,969.7265625,381.34765625,-1000.0,0.0
1734412295.3625398,969.23828125,970.21484375,250.48828125,-1000.0,0.0
1734412295.3663754,969.23828125,970.21484375,315.4296875,-1000.0,0.0
1734412295.3702111,969.23828125,970.703125,167.96875,-1000.0,0.0
1734412295.3740468,969.23828125,970.21484375,-338.8671875,-1000.0,0.0
1734412295.3778825,969.23828125,949.70703125,-548.33984375,-1000.0,0.0
1734412295.3892045,969.23828125,991.2109375,-771.484375,-1000.0,0.0
1734412295.3930497,973.14453125,716.30859375,-797.36328125,-1000.0,0.0
1734412295.396895,951.171875,14.6484375,-799.31640625,-1000.0,0.0
1734412295.4007404,940.4296875,-658.203125,-939.453125,-1000.0,0.0
1734412295.4045856,-948.73046875,-1000.0,-923.828125,-1000.0,0.0
1734412295.4084308,-3.41796875,-990.72265625,-959.47265625,-1000.0,0.0
1734412295.4122763,-1000.0,-994.62890625,-972.16796875,-1000.0,0.0
1734412295.4161215,-57.12890625,-1000.0,-958.984375,-1000.0,0.0
1734412295.4199667,315.91796875,-1000.0,-1000.0,-1000.0,0.0
1734412295.4238122,-1000.0,-1000.0,-1000.0,-1000.0,0.0
1734412295.4276574,-1000.0,-1000.0,-999.0234375,-996.58203125,0.0
1734412295.4315026,-960.44921875,-1000.0,-1000.0,-999.51171875,0.0
1734412295.4406831,-1000.0,-1000.0,-1000.0,-1000.0,0.0
1734412295.4445353,-1000.0,-1000.0,-1000.0,-1000.0,0.0
1734412295.4483874,-1000.0,-1000.0,-1000.0,-1000.0,0.0
1734412295.4522393,-1000.0,-1000.0,-1000.0,-1000.0,0.0
1734412295.4560914,-1000.0,-1000.0,-995.60546875,-1000.0,0.0
1734412295.4599433,-1000.0,-1000.0,-990.72265625,-1000.0,0.0
1734412295.4637954,-1000.0,-1000.0,-1000.0,-1000.0,0.0
1734412295.4676473,-1000.0,-1000.0,-995.60546875,-1000.0,0.0
1734412295.4714994,-1000.0,-1000.0,-994.140625,-1000.0,0.0
1734412295.4753516,-1000.0,-996.58203125,-996.09375,-1000.0,0.0
1734412295.4792035,-1000.0,-1000.0,-984.86328125,-1000.0,0.0
1734412295.4830556,-1000.0,-976.5625,-996.09375,-1000.0,0.0
1734412295.4902635,-1000.0,-942.87109375,-996.09375,-1000.0,0.0
1734412295.4941196,-1000.0,-998.53515625,-990.234375,-1000.0,0.0
1734412295.4979758,-1000.0,-1000.0,-1000.0,-1000.0,0.0
1734412295.501832,-1000.0,-997.55859375,-1000.0,-998.53515625,0.0
1734412295.5056882,-1000.0,-1000.0,-1000.0,-941.89453125,0.0
1734412295.5095446,-1000.0,-1000.0,-1000.0,-1000.0,0.0
1734412295.5134008,-1000.0,-1000.0,-1000.0,-172.8515625,0.0
1734412295.517257,-1000.0,-1000.0,-1000.0,-947.75390625,0.0
1734412295.5211132,-1000.0,-1000.0,-1000.0,948.2421875,0.0
1734412295.5249693,-1000.0,-1000.0,-1000.0,941.40625,0.0
1734412295.5288255,-1000.0,-1000.0,-1000.0,920.8984375,0.0
1734412295.5326817,-1000.0,-1000.0,-1000.0,-899.90234375,0.0
1734412295.537999,-1000.0,-1000.0,-1000.0,104.98046875,0.0
1734412295.5418568,-1000.0,-1000.0,-1000.0,-1000.0,0.0
1734412295.5457149,-1000.0,-1000.0,-1000.0,-972.65625,0.0
1734412295.5495727,-1000.0,-1000.0,-1000.0,-979.4921875,0.0
1734412295.5534308,-1000.0,-1000.0,-1000.0,-1000.0,0.0
1734412295.557289,-1000.0,-1000.0,-1000.0,-1000.0,0.0
1734412295.5611467,-1000.0,-1000.0,-1000.0,-1000.0,0.0
1734412295.5650048,-1000.0,-1000.0,-1000.0,-1000.0,0.0
1734412295.5688627,-1000.0,-1000.0,-1000.0,-1000.0,0.0
1734412295.5727208,-1000.0,-1000.0,-1000.0,-1000.0,0.0
1734412295.5765789,-1000.0,-1000.0,-1000.0,-1000.0,0.0
1734412295.5804367,-1000.0,-1000.0,-1000.0,-1000.0,0.0
1734412295.584014,-1000.0,-1000.0,-1000.0,-1000.0,0.0
1734412295.5878716,-1000.0,-1000.0,-1000.0,-1000.0,0.0
1734412295.5917292,-1000.0,-1000.0,-1000.0,-1000.0,0.0
1734412295.595587,-1000.0,-1000.0,-1000.0,-1000.0,0.0
1734412295.5994446,-1000.0,-1000.0,-1000.0,-1000.0,0.0
1734412295.6033022,-1000.0,-1000.0,-1000.0,-1000.0,0.0
1734412295.6071599,-1000.0,-1000.0,-1000.0,-1000.0,0.0
1734412295.6110175,-1000.0,-1000.0,-1000.0,-1000.0,0.0
1734412295.614875,-1000.0,-1000.0,-1000.0,-1000.0,0.0
1734412295.618733,-1000.0,-1000.0,-1000.0,-1000.0,0.0
1734412295.6225905,-1000.0,-1000.0,-1000.0,-1000.0,0.0
1734412295.6264482,-944.3359375,-940.4296875,-1000.0,-1000.0,0.0
1734412295.6304157,-1000.0,-1000.0,-998.046875,-1000.0,0.0
1734412295.6342735,-836.42578125,-537.109375,-1000.0,-1000.0,0.0
1734412295.6381311,574.21875,799.31640625,-987.79296875,-1000.0,0.0
1734412295.641989,-928.22265625,-986.81640625,-816.40625,-1000.0,0.0
1734412295.6458468,902.83203125,923.33984375,-650.87890625,-1000.0,0.0
1734412295.6497047,981.4453125,979.4921875,-96.19140625,-1000.0,0.0
1734412295.6535623,969.23828125,970.21484375,564.94140625,-1000.0,0.0
1734412295.6574202,969.23828125,969.7265625,675.78125,-1000.0,0.0
1734412295.661278,969.23828125,969.7265625,726.07421875,-1000.0,0.0
1734412295.6651359,969.23828125,969.7265625,570.3125,-999.0234375,0.0
1734412295.6689935,969.23828125,969.7265625,434.08203125,-1000.0,0.0
1734412295.6728513,969.23828125,969.7265625,385.7421875,-1000.0,0.0
1734412295.6767354,969.23828125,969.7265625,191.40625,-997.55859375,0.0
1734412295.680593,969.23828125,969.7265625,225.5859375,-999.0234375,0.0
1734412295.6844509,969.23828125,969.7265625,-23.92578125,-1000.0,0.0
1734412295.6883087,969.23828125,970.21484375,-483.88671875,-1000.0,0.0
1734412295.6921666,969.23828125,969.7265625,-496.09375,-933.59375,0.0
1734412295.6960244,968.75,970.21484375,-587.890625,-1000.0,0.0
1734412295.6998823,969.23828125,970.21484375,-584.9609375,-250.0,0.0
1734412295.7037401,969.23828125,969.7265625,-642.578125,-969.7265625,0.0
1734412295.7075977,968.75,970.21484375,-784.1796875,958.49609375,0.0
1734412295.7114556,968.75,969.7265625,-734.375,940.4296875,0.0
1734412295.7153134,969.23828125,970.21484375,-774.4140625,977.5390625,0.0
1734412295.7191713,969.23828125,969.7265625,-719.7265625,969.7265625,0.0
1734412295.7230258,969.23828125,969.7265625,-689.94140625,969.7265625,0.0
1734412295.7268836,969.23828125,970.21484375,-809.08203125,969.7265625,0.0
1734412295.7307413,969.23828125,969.7265625,-728.515625,969.7265625,0.0
1734412295.734599,969.23828125,970.21484375,-730.95703125,969.7265625,0.0
1734412295.738457,969.23828125,969.7265625,-687.98828125,969.7265625,0.0
1734412295.7423148,969.23828125,969.7265625,-623.046875,970.21484375,0.0
1734412295.7461727,969.23828125,969.7265625,-743.65234375,969.7265625,0.0
1734412295.7500305,969.23828125,970.21484375,-662.59765625,969.7265625,0.0
1734412295.7538881,968.75,969.7265625,-662.59765625,969.7265625,0.0
1734412295.757746,969.23828125,969.7265625,-629.39453125,969.7265625,0.0
1734412295.7616038,969.23828125,969.7265625,-520.5078125,969.7265625,0.0
1734412295.7654617,969.23828125,969.7265625,-651.3671875,969.7265625,0.0
1734412295.7692719,969.23828125,969.7265625,-595.703125,969.7265625,0.0
1734412295.7731295,968.75,969.7265625,-556.640625,969.7265625,0.0
1734412295.7769873,969.23828125,969.7265625,-537.109375,969.7265625,0.0
1734412295.780845,969.23828125,969.7265625,-351.07421875,969.7265625,0.0
1734412295.7847028,969.23828125,969.7265625,-463.37890625,969.7265625,0.0
1734412295.7885606,969.23828125,969.7265625,-468.75,969.7265625,0.0
1734412295.7924182,969.23828125,969.7265625,-313.4765625,969.7265625,0.0
1734412295.796276,969.23828125,969.7265625,-357.421875,969.7265625,0.0
1734412295.8001337,969.23828125,969.7265625,-0.9765625,969.7265625,0.0
1734412295.8039916,969.23828125,969.7265625,39.0625,969.7265625,0.0
1734412295.8078494,969.23828125,969.7265625,-145.5078125,969.7265625,0.0
1734412295.811707,969.23828125,970.703125,102.05078125,969.7265625,0.0
1734412295.8154545,969.23828125,964.35546875,64.94140625,969.7265625,0.0
1734412295.819312,969.23828125,973.6328125,237.79296875,969.7265625,0.0
1734412295.8231697,969.23828125,947.75390625,177.24609375,969.7265625,0.0
1734412295.8270273,969.23828125,785.15625,-71.2890625,969.7265625,0.0
1734412295.830885,969.23828125,637.6953125,141.11328125,969.7265625,0.0
1734412295.8347425,969.23828125,513.671875,108.3984375,969.7265625,0.0
1734412295.8386002,968.75,382.32421875,209.9609375,969.7265625,0.0
1734412295.8424578,969.23828125,205.56640625,123.046875,969.7265625,0.0
1734412295.8463154,969.7265625,169.921875,-288.0859375,969.7265625,0.0
1734412295.850173,969.23828125,222.65625,-126.953125,969.7265625,0.0
1734412295.8540308,969.23828125,138.671875,-171.38671875,969.7265625,0.0
1734412295.8578885,969.23828125,83.984375,-95.21484375,969.7265625,0.0
1734412295.8616107,969.23828125,101.07421875,44.921875,969.7265625,0.0
1734412295.865468,969.23828125,70.3125,-284.66796875,969.7265625,0.0
1734412295.8693256,969.23828125,-63.4765625,-142.08984375,969.7265625,0.0
1734412295.873183,968.75,-97.65625,14.16015625,969.7265625,0.0
1734412295.8770406,968.75,-56.640625,182.12890625,969.7265625,0.0
1734412295.880898,969.23828125,-108.88671875,321.77734375,969.7265625,0.0
1734412295.8847556,969.23828125,-222.16796875,170.8984375,969.7265625,0.0
1734412295.888613,969.23828125,-300.78125,275.390625,969.7265625,0.0
1734412295.8924706,969.23828125,-193.84765625,319.82421875,969.7265625,0.0
1734412295.896328,969.23828125,-138.18359375,356.4453125,969.7265625,0.0
1734412295.9001856,969.23828125,-186.5234375,398.92578125,969.7265625,0.0
1734412295.904043,969.23828125,-171.875,247.0703125,969.7265625,0.0
1734412295.907724,0.0,-142.08984375,288.57421875,969.7265625,0.0
1734412295.911581,0.0,-149.90234375,333.0078125,969.7265625,0.0
1734412295.9154384,0.0,-138.671875,339.84375,969.7265625,0.0
1734412295.9192958,0.0,-62.5,388.671875,969.7265625,0.0
1734412295.923153,0.0,26.3671875,240.234375,970.21484375,0.0
1734412295.9270103,0.0,34.1796875,257.8125,969.7265625,0.0
1734412295.9308677,0.0,-55.17578125,241.69921875,969.7265625,0.0
1734412295.9347248,0.0,5.859375,152.34375,969.7265625,0.0
1734412295.9385822,0.0,223.14453125,311.5234375,969.7265625,0.0
1734412295.9424396,0.0,318.84765625,37.59765625,969.7265625,0.0
1734412295.9462967,0.0,322.75390625,-202.1484375,969.7265625,0.0
1734412295.950154,0.0,365.234375,-119.62890625,969.7265625,0.0
1734412295.953784,969.23828125,467.28515625,-226.5625,969.7265625,0.0
1734412295.9576411,969.23828125,487.79296875,36.62109375,969.7265625,0.0
1734412295.961498,969.23828125,509.765625,-102.5390625,969.7265625,0.0
1734412295.9653552,969.23828125,596.6796875,-411.62109375,969.7265625,0.0
1734412295.9692123,969.23828125,621.58203125,-205.078125,969.7265625,0.0
1734412295.9730692,969.23828125,549.31640625,-301.7578125,969.7265625,0.0
1734412295.9769263,968.75,516.11328125,-197.75390625,969.7265625,0.0
1734412295.9807835,968.75,646.97265625,-223.6328125,969.7265625,0.0
1734412295.9846404,969.23828125,656.73828125,-458.49609375,969.7265625,0.0
1734412295.9884975,969.23828125,515.625,-352.05078125,969.7265625,0.0
1734412295.9923544,969.23828125,529.296875,-401.3671875,969.7265625,0.0
1734412295.9962115,969.23828125,639.6484375,-147.4609375,969.7265625,0.0
1734412296.0003123,969.23828125,633.7890625,-51.26953125,969.7265625,0.0
1734412296.0041697,969.23828125,577.1484375,-364.74609375,969.7265625,0.0
1734412296.008027,969.23828125,548.828125,-154.78515625,969.7265625,0.0
1734412296.0118842,969.23828125,559.08203125,-15.13671875,969.7265625,0.0
1734412296.0157416,969.23828125,513.18359375,157.2265625,969.7265625,0.0
1734412296.019599,969.23828125,388.671875,296.875,969.7265625,0.0
1734412296.0234563,969.23828125,306.15234375,180.6640625,969.7265625,0.0
1734412296.0273135,968.75,251.46484375,289.55078125,969.23828125,0.0
1734412296.0311708,968.75,180.6640625,312.98828125,969.23828125,0.0
1734412296.0350282,969.23828125,38.0859375,402.83203125,969.7265625,0.0
1734412296.0388854,968.75,-17.08984375,427.734375,969.7265625,0.0
1734412296.0427427,969.23828125,-64.94140625,294.43359375,969.7265625,0.0
1734412296.0468102,968.75,-283.69140625,341.30859375,969.7265625,0.0
1734412296.0506675,968.75,-417.96875,345.703125,969.23828125,0.0
1734412296.0545251,969.23828125,-470.703125,366.69921875,969.7265625,0.0
1734412296.0583825,969.23828125,-579.1015625,393.5546875,969.7265625,0.0
1734412296.0622401,968.75,-738.76953125,165.52734375,969.7265625,0.0
1734412296.0660977,969.23828125,-919.43359375,154.78515625,969.7265625,0.0
1734412296.069955,969.23828125,-996.09375,140.625,969.7265625,0.0
1734412296.0738127,969.23828125,-997.0703125,-50.29296875,969.7265625,0.0
1734412296.0776703,969.23828125,-999.0234375,-183.10546875,969.7265625,0.0
1734412296.0815277,969.23828125,-1000.0,-579.58984375,970.21484375,0.0
1734412296.0853853,969.23828125,-1000.0,-726.5625,969.7265625,0.0
1734412296.0892427,969.23828125,-1000.0,-778.3203125,969.23828125,0.0
1734412296.0932326,969.23828125,-1000.0,-880.37109375,969.7265625,0.0
1734412296.0970902,969.7265625,-1000.0,-893.06640625,969.7265625,0.0
1734412296.100948,969.23828125,-1000.0,-976.5625,969.7265625,0.0
1734412296.1048057,969.23828125,-1000.0,-1000.0,969.7265625,0.0
1734412296.1086633,969.23828125,-1000.0,-994.140625,970.21484375,0.0
1734412296.112521,969.23828125,-1000.0,-1000.0,969.7265625,0.0
1734412296.1163788,968.75,-1000.0,-1000.0,969.7265625,0.0
1734412296.1202364,969.23828125,-1000.0,-1000.0,969.7265625,0.0
1734412296.124094,969.7265625,-1000.0,-1000.0,969.7265625,0.0
1734412296.1279516,969.23828125,-1000.0,-1000.0,970.21484375,0.0
1734412296.1318092,969.23828125,-1000.0,-1000.0,969.7265625,0.0
1734412296.135667,969.23828125,-1000.0,-1000.0,969.7265625,0.0
1734412296.1396384,969.7265625,-1000.0,-1000.0,969.7265625,0.0
1734412296.1434963,967.28515625,-1000.0,-998.53515625,969.7265625,0.0
1734412296.147354,975.5859375,-1000.0,-990.234375,976.07421875,0.0
1734412296.1512117,946.77734375,-999.51171875,-991.69921875,900.87890625,0.0
1734412296.1550696,939.453125,-994.62890625,-876.953125,-891.11328125,0.0
1734412296.1589274,973.6328125,-1000.0,-784.66796875,297.8515625,0.0
1734412296.162785,968.26171875,-889.6484375,-667.48046875,-1000.0,0.0
1734412296.166643,967.28515625,-751.46484375,49.31640625,-1000.0,0.0
1734412296.1705008,964.35546875,-577.63671875,548.828125,-964.35546875,0.0
1734412296.1743584,967.7734375,-200.68359375,625.48828125,-1000.0,0.0
1734412296.1782162,969.7265625,31.25,708.49609375,-1000.0,0.0
1734412296.182074,968.75,148.4375,717.28515625,-1000.0,0.0
1734412296.1859813,984.375,287.59765625,827.63671875,-1000.0,0.0
1734412296.1898391,905.2734375,445.3125,869.62890625,-1000.0,0.0
1734412296.193697,-947.75390625,530.76171875,884.765625,-1000.0,0.0
1734412296.1975548,702.1484375,695.3125,905.76171875,-1000.0,0.0
1734412296.2014127,-731.4453125,-70.3125,891.11328125,-1000.0,0.0
1734412296.2052703,-1000.0,-1000.0,888.671875,-1000.0,0.0
1734412296.2091281,-937.01171875,-988.28125,881.34765625,-1000.0,0.0
1734412296.212986,-1000.0,-979.4921875,878.41796875,-1000.0,0.0
1734412296.2168438,-1000.0,-1000.0,883.30078125,-1000.0,0.0
1734412296.2207017,-1000.0,-1000.0,870.1171875,-1000.0,0.0
1734412296.2245595,-1000.0,-1000.0,873.046875,-1000.0,0.0
1734412296.2284174,-1000.0,-1000.0,874.0234375,-1000.0,0.0
1734412296.2322865,-1000.0,-1000.0,878.90625,-1000.0,0.0
1734412296.2361443,-1000.0,-1000.0,890.625,-1000.0,0.0
1734412296.2400022,-1000.0,-985.83984375,878.90625,-1000.0,0.0
1734412296.24386,-1000.0,-1000.0,882.32421875,-1000.0,0.0
1734412296.2477179,-968.26171875,-867.1875,884.765625,-1000.0,0.0
1734412296.2515757,-997.55859375,-264.16015625,884.27734375,-1000.0,0.0
1734412296.2554336,-1000.0,572.265625,896.484375,-1000.0,0.0
1734412296.2592914,250.48828125,976.5625,885.25390625,-1000.0,0.0
1734412296.2631493,-900.87890625,954.1015625,896.484375,-1000.0,0.0
1734412296.267007,907.2265625,964.35546875,905.2734375,-1000.0,0.0
1734412296.270865,971.6796875,972.16796875,904.296875,-1000.0,0.0
1734412296.2747228,969.7265625,970.21484375,913.57421875,-1000.0,0.0
1734412296.2785332,969.23828125,970.21484375,898.92578125,-1000.0,0.0
1734412296.2823908,969.23828125,969.7265625,893.06640625,-1000.0,0.0
1734412296.2862487,969.23828125,969.7265625,895.01953125,-1000.0,0.0
1734412296.2901065,969.23828125,969.7265625,885.25390625,-1000.0,0.0
1734412296.2939644,969.23828125,969.7265625,898.4375,-1000.0,0.0
1734412296.297822,969.23828125,970.21484375,886.23046875,-1000.0,0.0
1734412296.3016798,969.23828125,969.7265625,868.1640625,-1000.0,0.0
1734412296.3055377,969.23828125,969.7265625,873.046875,-1000.0,0.0
1734412296.3093956,969.23828125,969.7265625,864.2578125,-1000.0,0.0
1734412296.3132532,968.75,969.7265625,871.58203125,-1000.0,0.0
1734412296.317111,969.23828125,969.7265625,861.328125,-1000.0,0.0
1734412296.3209689,969.23828125,969.7265625,845.21484375,-1000.0,0.0
1734412296.3247492,969.23828125,969.7265625,851.07421875,-1000.0,0.0
1734412296.3286068,969.23828125,969.7265625,839.35546875,-1000.0,0.0
1734412296.3324645,969.23828125,969.7265625,849.609375,-1000.0,0.0
1734412296.3363223,969.23828125,970.21484375,841.796875,-1000.0,0.0
1734412296.34018,969.23828125,969.7265625,814.453125,-1000.0,0.0
1734412296.3440378,969.23828125,969.7265625,825.1953125,-1000.0,0.0
1734412296.3478954,969.23828125,969.7265625,763.18359375,-1000.0,0.0
1734412296.3517532,969.23828125,969.7265625,776.3671875,-1000.0,0.0
1734412296.3556108,969.23828125,970.21484375,760.25390625,-1000.0,0.0
1734412296.3594687,969.23828125,969.7265625,633.30078125,-1000.0,0.0
1734412296.3633263,969.23828125,969.7265625,638.18359375,-1000.0,0.0
1734412296.367184,969.23828125,970.21484375,592.7734375,-1000.0,0.0
1734412296.3714159,969.23828125,970.21484375,581.0546875,-1000.0,0.0
1734412296.375274,969.23828125,970.21484375,594.7265625,-1000.0,0.0
1734412296.379132,969.7265625,970.21484375,466.30859375,-1000.0,0.0
1734412296.3829901,969.23828125,970.21484375,474.12109375,-1000.0,0.0
1734412296.3868482,969.23828125,969.7265625,502.9296875,-1000.0,0.0
1734412296.3907063,969.23828125,969.23828125,516.6015625,-1000.0,0.0
1734412296.3945644,969.23828125,969.7265625,561.03515625,-1000.0,0.0
1734412296.3984225,969.23828125,969.7265625,473.14453125,-1000.0,0.0
1734412296.4022806,969.23828125,969.7265625,474.609375,-1000.0,0.0
1734412296.4061387,969.23828125,970.21484375,500.9765625,-1000.0,0.0
1734412296.4099967,969.23828125,970.21484375,510.25390625,-1000.0,0.0
1734412296.4138548,969.23828125,969.7265625,584.9609375,-1000.0,0.0
1734412296.4184682,969.23828125,969.7265625,544.43359375,-1000.0,0.0
1734412296.422327,969.23828125,970.21484375,568.84765625,-1000.0,0.0
1734412296.4261858,969.23828125,970.21484375,612.3046875,-1000.0,0.0
1734412296.4300447,969.23828125,969.7265625,604.4921875,-1000.0,0.0
1734412296.4339035,968.75,969.7265625,666.9921875,-1000.0,0.0
1734412296.4377623,969.23828125,970.21484375,604.00390625,-1000.0,0.0
1734412296.441621,969.23828125,970.21484375,594.7265625,-1000.0,0.0
1734412296.4454799,969.23828125,969.7265625,664.55078125,-1000.0,0.0
1734412296.4493387,969.23828125,970.21484375,656.25,-1000.0,0.0
1734412296.4531975,969.23828125,969.7265625,744.62890625,-1000.0,0.0
1734412296.4570563,969.23828125,969.7265625,742.67578125,-1000.0,0.0
1734412296.460915,969.7265625,970.21484375,696.2890625,-1000.0,0.0
1734412296.465,969.23828125,969.7265625,721.19140625,-1000.0,0.0
1734412296.468859,969.23828125,969.7265625,685.546875,-1000.0,0.0
1734412296.472718,969.23828125,969.7265625,703.125,-1000.0,0.0
1734412296.476577,969.23828125,969.7265625,654.78515625,-1000.0,0.0
1734412296.480436,969.23828125,970.21484375,570.80078125,-1000.0,0.0
1734412296.484295,969.23828125,969.7265625,573.2421875,-1000.0,0.0
1734412296.488154,969.23828125,969.7265625,554.19921875,-1000.0,0.0
1734412296.492013,969.23828125,969.7265625,605.95703125,-1000.0,0.0
1734412296.495872,969.23828125,969.7265625,602.05078125,-1000.0,0.0
1734412296.499731,969.23828125,969.7265625,547.8515625,-1000.0,0.0
1734412296.50359,969.23828125,970.21484375,598.14453125,-1000.0,0.0
1734412296.5074492,969.23828125,969.7265625,589.35546875,-1000.0,0.0
1734412296.5114763,969.23828125,970.703125,611.81640625,-1000.0,0.0
1734412296.5153353,969.23828125,966.796875,625.9765625,-1000.0,0.0
1734412296.5191946,969.23828125,975.5859375,559.5703125,-1000.0,0.0
1734412296.5230536,969.23828125,946.2890625,578.61328125,-947.265625,0.0
1734412296.526913,969.23828125,896.484375,566.89453125,-1000.0,0.0
1734412296.530772,968.75,820.80078125,566.89453125,-846.6796875,0.0
1734412296.5346313,969.7265625,724.609375,583.0078125,543.9453125,0.0
1734412296.5384903,968.75,593.26171875,465.33203125,-927.24609375,0.0
1734412296.5423496,964.35546875,419.43359375,461.42578125,904.78515625,0.0
1734412296.5462089,967.7734375,409.66796875,486.81640625,980.95703125,0.0
1734412296.550068,969.7265625,364.74609375,497.55859375,969.7265625,0.0
1734412296.5539272,968.75,229.98046875,581.0546875,969.7265625,0.0
1734412296.5579414,969.23828125,187.5,540.0390625,969.7265625,0.0
1734412296.561801,969.7265625,161.1328125,580.56640625,969.7265625,0.0
1734412296.5656602,966.796875,82.03125,623.53515625,969.7265625,0.0
1734412296.5695195,968.26171875,71.2890625,619.140625,969.7265625,0.0
1734412296.5733788,962.890625,134.765625,670.41015625,969.7265625,0.0
1734412296.577238,959.47265625,215.33203125,595.21484375,969.7265625,0.0
1734412296.5810974,974.12109375,311.03515625,581.0546875,969.7265625,0.0
1734412296.584957,896.97265625,294.921875,585.9375,969.7265625,0.0
1734412296.5888162,882.8125,432.12890625,567.3828125,969.7265625,0.0
1734412296.5926754,955.56640625,740.72265625,649.4140625,969.7265625,0.0
1734412296.5965347,957.51953125,882.32421875,605.46875,969.23828125,0.0
1734412296.600394,958.984375,942.3828125,598.14453125,969.7265625,0.0
1734412296.6043696,953.61328125,969.23828125,657.2265625,969.7265625,0.0
1734412296.608229,958.0078125,969.23828125,650.87890625,969.7265625,0.0
1734412296.6120884,899.90234375,969.23828125,708.984375,969.7265625,0.0
1734412296.615948,830.078125,971.6796875,681.15234375,969.7265625,0.0
1734412296.6198072,-979.4921875,958.49609375,645.5078125,969.7265625,0.0
1734412296.6236668,267.578125,993.1640625,678.22265625,969.7265625,0.0
1734412296.627526,-922.8515625,896.484375,655.76171875,969.7265625,0.0
1734412296.6313856,-1000.0,731.4453125,688.4765625,969.7265625,0.0
1734412296.635245,-610.3515625,893.06640625,670.41015625,969.7265625,0.0
1734412296.6391044,725.5859375,987.79296875,629.8828125,969.7265625,0.0
1734412296.642964,-966.796875,961.42578125,656.25,969.7265625,0.0
1734412296.6468234,913.57421875,969.7265625,613.28125,970.21484375,0.0
1734412296.6507597,980.95703125,969.7265625,637.6953125,969.7265625,0.0
1734412296.654619,969.23828125,969.7265625,634.765625,969.7265625,0.0
1734412296.6584785,969.23828125,969.7265625,583.0078125,969.7265625,0.0
1734412296.662338,969.23828125,969.7265625,634.27734375,969.7265625,0.0
1734412296.6661975,968.26171875,969.7265625,643.5546875,970.21484375,0.0
1734412296.670057,972.16796875,969.7265625,671.875,969.7265625,0.0
1734412296.6739166,957.51953125,969.7265625,648.4375,969.7265625,0.0
1734412296.677776,955.078125,969.7265625,557.12890625,969.7265625,0.0
1734412296.6816356,971.6796875,969.7265625,571.2890625,969.7265625,0.0
1734412296.6854951,968.75,969.7265625,521.484375,969.7265625,0.0
1734412296.6893547,968.75,969.7265625,471.6796875,969.7265625,0.0
1734412296.693214,968.75,969.7265625,424.31640625,969.7265625,0.0
1734412296.6970828,970.21484375,968.26171875,233.3984375,969.7265625,0.0
1734412296.7009423,965.33203125,968.26171875,216.796875,969.7265625,0.0
1734412296.7048018,965.33203125,942.87109375,83.984375,969.7265625,0.0
1734412296.7086613,959.9609375,841.796875,-160.15625,969.7265625,0.0
1734412296.7125208,971.6796875,692.87109375,-89.35546875,969.7265625,0.0
1734412296.7163801,927.24609375,438.4765625,-368.1640625,969.7265625,0.0
1734412296.7202396,885.25390625,192.3828125,-551.7578125,969.7265625,0.0
1734412296.7240992,934.5703125,75.68359375,-517.08984375,969.7265625,0.0
1734412296.7279587,954.1015625,-70.80078125,-595.703125,969.7265625,0.0
1734412296.7318182,843.26171875,-332.51953125,-586.42578125,969.7265625,0.0
1734412296.7356777,778.3203125,-487.3046875,-743.1640625,969.7265625,0.0
1734412296.7395372,901.3671875,-536.1328125,-774.4140625,969.7265625,0.0
1734412296.7437835,930.17578125,-702.63671875,-753.90625,969.7265625,0.0
1734412296.7476432,906.73828125,-861.81640625,-832.03125,969.7265625,0.0
1734412296.7515032,869.62890625,-963.37890625,-793.9453125,969.7265625,0.0
1734412296.755363,855.46875,-994.62890625,-868.65234375,969.7265625,0.0
1734412296.7592227,877.9296875,-997.0703125,-905.2734375,969.7265625,0.0
1734412296.7630827,843.75,-1000.0,-877.44140625,969.7265625,0.0
1734412296.7669425,825.68359375,-1000.0,-929.6875,969.7265625,0.0
1734412296.7708025,855.46875,-1000.0,-904.78515625,969.7265625,0.0
1734412296.7746623,874.0234375,-1000.0,-930.6640625,969.7265625,0.0
1734412296.778522,778.80859375,-1000.0,-962.890625,969.7265625,0.0
1734412296.782382,764.6484375,-1000.0,-938.4765625,969.7265625,0.0
1734412296.7862418,834.47265625,-1000.0,-963.37890625,969.7265625,0.0
1734412296.7904654,806.15234375,-1000.0,-939.453125,969.7265625,0.0
1734412296.7943254,800.29296875,-1000.0,-946.2890625,970.21484375,0.0
1734412296.7981856,809.5703125,-1000.0,-974.609375,969.7265625,0.0
1734412296.8020458,834.9609375,-1000.0,-935.05859375,969.7265625,0.0
1734412296.8059058,791.015625,-1000.0,-950.68359375,970.21484375,0.0
1734412296.809766,750.48828125,-1000.0,-912.59765625,969.7265625,0.0
1734412296.8136263,764.16015625,-1000.0,-901.85546875,969.7265625,0.0
1734412296.8174865,765.13671875,-1000.0,-958.984375,969.7265625,0.0
1734412296.8213465,784.66796875,-1000.0,-912.59765625,969.7265625,0.0
1734412296.8252068,684.5703125,-1000.0,-923.33984375,969.7265625,0.0
1734412296.829067,566.89453125,-1000.0,-867.67578125,969.7265625,0.0
1734412296.832927,774.90234375,-1000.0,-822.75390625,969.7265625,0.0
1734412296.8370788,480.95703125,-1000.0,-903.80859375,969.7265625,0.0
1734412296.8409393,-740.72265625,-1000.0,-907.71484375,969.7265625,0.0
1734412296.8447998,-1000.0,-1000.0,-962.40234375,969.7265625,0.0
1734412296.8486602,-946.2890625,-1000.0,-998.046875,970.21484375,0.0
1734412296.8525205,-1000.0,-1000.0,-991.2109375,969.7265625,0.0
1734412296.856381,-1000.0,-1000.0,-1000.0,969.7265625,0.0
1734412296.8602414,-1000.0,-1000.0,-1000.0,969.7265625,0.0
1734412296.864102,-1000.0,-1000.0,-1000.0,969.7265625,0.0
1734412296.8679621,-1000.0,-1000.0,-1000.0,970.21484375,0.0
1734412296.8718226,-1000.0,-1000.0,-1000.0,969.7265625,0.0
1734412296.875683,-1000.0,-1000.0,-1000.0,969.7265625,0.0
1734412296.8795435,-1000.0,-1000.0,-1000.0,970.21484375,0.0
1734412296.8836682,-1000.0,-1000.0,-1000.0,969.7265625,0.0
1734412296.887529,-1000.0,-1000.0,-1000.0,970.21484375,0.0
1734412296.8913894,-1000.0,-1000.0,-1000.0,969.7265625,0.0
1734412296.89525,-1000.0,-1000.0,-1000.0,969.7265625,0.0
1734412296.8991108,-1000.0,-1000.0,-1000.0,970.21484375,0.0
1734412296.9029715,-1000.0,-1000.0,-1000.0,969.7265625,0.0
1734412296.906832,-1000.0,-1000.0,-1000.0,969.7265625,0.0
1734412296.9106927,-1000.0,-1000.0,-1000.0,969.7265625,0.0
1734412296.9145534,-1000.0,-1000.0,-1000.0,969.7265625,0.0
1734412296.9184139,-1000.0,-1000.0,-1000.0,969.7265625,0.0
1734412296.9222746,-1000.0,-1000.0,-1000.0,970.21484375,0.0
1734412296.9261353,-1000.0,-1000.0,-1000.0,969.7265625,0.0
1734412296.930205,-1000.0,-1000.0,-1000.0,969.7265625,0.0
1734412296.934066,-1000.0,-1000.0,-1000.0,969.7265625,0.0
1734412296.9379268,-1000.0,-1000.0,-999.51171875,969.7265625,0.0
1734412296.9417877,-1000.0,-1000.0,-996.09375,970.21484375,0.0
1734412296.9456484,-1000.0,-1000.0,-995.1171875,969.7265625,0.0
1734412296.9495094,-1000.0,-1000.0,-983.88671875,969.7265625,0.0
1734412296.95337,-1000.0,-1000.0,-986.81640625,970.21484375,0.0
1734412296.957231,-1000.0,-1000.0,-997.0703125,969.7265625,0.0
1734412296.9610918,-1000.0,-1000.0,-982.91015625,969.7265625,0.0
1734412296.9649527,-1000.0,-1000.0,-985.83984375,970.21484375,0.0
1734412296.9688134,-1000.0,-1000.0,-971.6796875,969.7265625,0.0
1734412296.9726744,-1000.0,-1000.0,-969.23828125,969.7265625,0.0
1734412296.9766943,-1000.0,-1000.0,-996.58203125,969.7265625,0.0
1734412296.9805553,-1000.0,-1000.0,-988.28125,969.7265625,0.0
1734412296.9844162,-1000.0,-1000.0,-993.1640625,970.21484375,0.0
1734412296.9882772,-1000.0,-1000.0,-982.91015625,969.7265625,0.0
1734412296.9921381,-1000.0,-1000.0,-976.07421875,969.7265625,0.0
1734412296.995999,-1000.0,-1000.0,-1000.0,969.7265625,0.0
1734412296.99986,-1000.0,-1000.0,-997.0703125,969.7265625,0.0
1734412297.003721,-1000.0,-1000.0,-998.046875,969.7265625,0.0
1734412297.0075822,-1000.0,-1000.0,-985.83984375,969.7265625,0.0
1734412297.0114431,-1000.0,-1000.0,-975.09765625,970.21484375,0.0
1734412297.015304,-1000.0,-1000.0,-1000.0,970.21484375,0.0
1734412297.019165,-1000.0,-1000.0,-994.140625,969.7265625,0.0
1734412297.023144,-1000.0,-1000.0,-987.3046875,969.7265625,0.0
1734412297.027005,-1000.0,-1000.0,-980.95703125,969.7265625,0.0
1734412297.0308661,-1000.0,-1000.0,-967.7734375,969.7265625,0.0
1734412297.034727,-1000.0,-1000.0,-992.67578125,969.7265625,0.0
1734412297.0385883,-1000.0,-1000.0,-985.83984375,969.7265625,0.0
1734412297.0424492,-1000.0,-1000.0,-975.09765625,969.7265625,0.0
1734412297.0463104,-1000.0,-1000.0,-983.88671875,969.7265625,0.0
1734412297.0501714,-1000.0,-1000.0,-977.05078125,970.21484375,0.0
1734412297.0540326,-1000.0,-1000.0,-994.140625,970.21484375,0.0
1734412297.0578935,-1000.0,-1000.0,-992.1875,969.7265625,0.0
1734412297.0617545,-1000.0,-1000.0,-982.421875,969.7265625,0.0
1734412297.0656157,-1000.0,-1000.0,-992.1875,969.7265625,0.0
1734412297.0695543,-1000.0,-1000.0,-989.2578125,969.7265625,0.0
1734412297.0734155,-1000.0,-1000.0,-996.58203125,969.7265625,0.0
1734412297.0772767,-1000.0,-1000.0,-1000.0,970.21484375,0.0
1734412297.081138,-1000.0,-1000.0,-1000.0,970.21484375,0.0
1734412297.0849988,-1000.0,-1000.0,-1000.0,969.7265625,0.0
1734412297.08886,-1000.0,-1000.0,-1000.0,970.21484375,0.0
1734412297.0927212,-1000.0,-1000.0,-1000.0,969.23828125,0.0
1734412297.0965822,-1000.0,-1000.0,-1000.0,969.7265625,0.0
1734412297.1004434,-1000.0,-1000.0,-1000.0,978.02734375,0.0
1734412297.1043046,-1000.0,-1000.0,-1000.0,899.90234375,0.0
1734412297.1081657,-1000.0,-1000.0,-1000.0,-896.97265625,0.0
1734412297.1120267,-1000.0,-1000.0,-1000.0,355.95703125,0.0
1734412297.1163445,-1000.0,-1000.0,-1000.0,-998.046875,0.0
1734412297.120206,-1000.0,-1000.0,-1000.0,-1000.0,0.0
1734412297.1240675,-1000.0,-1000.0,-1000.0,-959.47265625,0.0
1734412297.127929,-1000.0,-1000.0,-1000.0,-1000.0,0.0
1734412297.1317904,-1000.0,-1000.0,-1000.0,-1000.0,0.0
1734412297.135652,-1000.0,-1000.0,-1000.0,-1000.0,0.0
1734412297.1395135,-1000.0,-1000.0,-1000.0,-1000.0,0.0
1734412297.143375,-1000.0,-1000.0,-1000.0,-1000.0,0.0
1734412297.1472363,-1000.0,-1000.0,-1000.0,-1000.0,0.0
1734412297.151098,-1000.0,-1000.0,-1000.0,-1000.0,0.0
1734412297.1549594,-1000.0,-1000.0,-1000.0,-1000.0,0.0
1734412297.1588209,-1000.0,-1000.0,-1000.0,-1000.0,0.0
1734412297.1630878,-1000.0,-1000.0,-1000.0,-1000.0,0.0
1734412297.1669497,-1000.0,-1000.0,-1000.0,-1000.0,0.0
1734412297.1708114,-1000.0,-1000.0,-1000.0,-1000.0,0.0
1734412297.1746733,-1000.0,-950.1953125,-1000.0,-1000.0,0.0
1734412297.1785352,-1000.0,-1000.0,-1000.0,-1000.0,0.0
1734412297.182397,-1000.0,-637.20703125,-1000.0,-1000.0,0.0
1734412297.1862588,-1000.0,653.80859375,-1000.0,-1000.0,0.0
1734412297.1901205,-1000.0,-971.6796875,-1000.0,-1000.0,0.0
1734412297.1939824,-1000.0,923.33984375,-1000.0,-1000.0,0.0
1734412297.1978443,-1000.0,975.5859375,-1000.0,-1000.0,0.0
1734412297.201706,-1000.0,970.21484375,-1000.0,-1000.0,0.0
1734412297.2055678,-1000.0,969.7265625,-1000.0,-1000.0,0.0
1734412297.209747,-1000.0,970.21484375,-1000.0,-1000.0,0.0
1734412297.2136092,-1000.0,970.21484375,-1000.0,-1000.0,0.0
1734412297.2174714,-1000.0,969.7265625,-1000.0,-1000.0,0.0
1734412297.2213335,-1000.0,969.7265625,-1000.0,-1000.0,0.0
1734412297.2251954,-1000.0,970.21484375,-1000.0,-1000.0,0.0
1734412297.2290576,-1000.0,969.7265625,-1000.0,-1000.0,0.0
1734412297.2329197,-1000.0,969.7265625,-1000.0,-1000.0,0.0
1734412297.2367816,-1000.0,970.21484375,-1000.0,-1000.0,0.0
1734412297.2406437,-1000.0,970.21484375,-1000.0,-1000.0,0.0
1734412297.244506,-1000.0,969.7265625,-1000.0,-1000.0,0.0
1734412297.248368,-1000.0,969.7265625,-1000.0,-992.67578125,0.0
1734412297.25223,-1000.0,970.21484375,-1000.0,-950.68359375,0.0
1734412297.2563648,-1000.0,970.21484375,-1000.0,-1000.0,0.0
1734412297.2602272,-1000.0,970.21484375,-1000.0,-82.51953125,0.0
1734412297.2640896,-1000.0,970.21484375,-1000.0,-927.734375,0.0
1734412297.2679517,-1000.0,970.21484375,-1000.0,935.05859375,0.0
1734412297.271814,-1000.0,970.21484375,-1000.0,952.63671875,0.0
1734412297.2756765,-1000.0,970.21484375,-1000.0,973.6328125,0.0
1734412297.2795386,-1000.0,970.21484375,-1000.0,969.7265625,0.0
1734412297.283401,-1000.0,970.21484375,-1000.0,969.7265625,0.0
1734412297.2872632,-1000.0,970.21484375,-1000.0,970.21484375,0.0
1734412297.2911255,-1000.0,970.21484375,-1000.0,969.7265625,0.0
1734412297.294988,-1000.0,970.21484375,-1000.0,969.7265625,0.0
1734412297.29885,-1000.0,970.21484375,-1000.0,969.7265625,0.0
1734412297.3029828,-1000.0,970.21484375,-1000.0,969.7265625,0.0
1734412297.3068454,-1000.0,969.7265625,-1000.0,970.21484375,0.0
1734412297.3107078,-1000.0,970.21484375,-1000.0,969.7265625,0.0
1734412297.3145704,-1000.0,970.21484375,-1000.0,969.7265625,0.0
1734412297.3184328,-1000.0,970.21484375,-1000.0,970.21484375,0.0
1734412297.3222954,-1000.0,970.21484375,-1000.0,969.7265625,0.0
1734412297.3261578,-1000.0,970.21484375,-1000.0,969.7265625,0.0
1734412297.3300204,-1000.0,970.21484375,-1000.0,969.23828125,0.0
1734412297.3338828,-1000.0,971.19140625,-1000.0,969.23828125,0.0
1734412297.3377454,-1000.0,958.984375,-1000.0,969.7265625,0.0
1734412297.3416078,-1000.0,974.12109375,-1000.0,969.7265625,0.0
1734412297.3454704,-1000.0,877.9296875,-1000.0,969.7265625,0.0
1734412297.3499274,-1000.0,413.0859375,-1000.0,969.7265625,0.0
1734412297.3537905,-1000.0,-103.02734375,-1000.0,970.21484375,0.0
1734412297.3576534,-1000.0,-450.1953125,-1000.0,970.21484375,0.0
1734412297.3615165,-1000.0,-701.66015625,-1000.0,970.21484375,0.0
1734412297.3653793,-1000.0,-912.59765625,-1000.0,969.7265625,0.0
1734412297.3692424,-1000.0,-1000.0,-1000.0,969.7265625,0.0
1734412297.3731053,-1000.0,-995.1171875,-1000.0,969.7265625,0.0
1734412297.3769681,-1000.0,-1000.0,-1000.0,969.7265625,0.0
1734412297.3808312,-1000.0,-1000.0,-1000.0,969.7265625,0.0
1734412297.384694,-1000.0,-1000.0,-998.53515625,969.7265625,0.0
1734412297.3885572,-986.328125,-989.74609375,-988.28125,969.7265625,0.0
1734412297.39242,-960.44921875,-956.54296875,-936.03515625,969.7265625,0.0
1734412297.396844,-1000.0,-1000.0,-1000.0,969.7265625,0.0
1734412297.4007075,11.23046875,-71.2890625,-369.140625,969.7265625,0.0
1734412297.4045708,-909.66796875,-951.66015625,730.46875,969.7265625,0.0
1734412297.4084342,922.8515625,967.28515625,862.79296875,969.7265625,0.0
1734412297.4122977,958.984375,-113.76953125,859.86328125,970.21484375,0.0
1734412297.416161,970.703125,-1000.0,905.2734375,969.7265625,0.0
1734412297.4200244,969.23828125,-964.84375,930.6640625,969.23828125,0.0
1734412297.4238877,969.23828125,-987.79296875,941.40625,969.7265625,0.0
1734412297.4277513,969.23828125,-1000.0,950.68359375,969.7265625,0.0
1734412297.4316146,969.23828125,-1000.0,954.58984375,969.7265625,0.0
1734412297.435478,969.23828125,-1000.0,956.0546875,970.21484375,0.0
1734412297.4393413,969.23828125,-1000.0,960.9375,970.21484375,0.0
1734412297.443314,969.23828125,-1000.0,966.30859375,969.7265625,0.0
1734412297.4471776,969.23828125,-1000.0,968.75,969.7265625,0.0
1734412297.451041,969.23828125,-1000.0,965.8203125,969.7265625,0.0
1734412297.4549046,969.23828125,-1000.0,961.42578125,969.7265625,0.0
1734412297.4587681,969.23828125,-998.53515625,962.40234375,969.7265625,0.0
1734412297.4626315,968.75,-991.69921875,960.9375,969.7265625,0.0
1734412297.466495,969.23828125,-1000.0,958.984375,970.21484375,0.0
1734412297.4703586,969.23828125,-811.5234375,954.58984375,969.7265625,0.0
1734412297.474222,968.75,-387.6953125,949.70703125,969.7265625,0.0
1734412297.4780855,968.75,-35.15625,948.2421875,969.7265625,0.0
1734412297.4819489,968.75,564.453125,948.2421875,969.7265625,0.0
1734412297.4858124,969.23828125,995.1171875,949.70703125,969.7265625,0.0
1734412297.4901092,969.23828125,956.0546875,947.265625,969.7265625,0.0
1734412297.493973,969.23828125,963.37890625,943.359375,969.7265625,0.0
1734412297.4978368,969.23828125,971.6796875,943.359375,969.7265625,0.0
1734412297.5017006,968.75,969.7265625,943.84765625,969.7265625,0.0
1734412297.5055645,969.23828125,969.7265625,942.87109375,969.7265625,0.0
1734412297.5094283,969.23828125,969.7265625,942.3828125,969.23828125,0.0
1734412297.513292,969.23828125,969.7265625,936.03515625,969.7265625,0.0
1734412297.517156,969.23828125,969.7265625,934.5703125,969.7265625,0.0
1734412297.5210197,969.23828125,969.7265625,935.05859375,969.7265625,0.0
1734412297.5248835,969.23828125,969.7265625,933.10546875,969.7265625,0.0
1734412297.5287473,968.75,969.7265625,931.640625,969.7265625,0.0
1734412297.5326111,969.23828125,969.7265625,925.29296875,969.7265625,0.0
1734412297.536868,969.23828125,969.7265625,923.828125,969.7265625,0.0
1734412297.5407324,969.23828125,969.7265625,924.31640625,969.7265625,0.0
1734412297.5445964,969.23828125,969.7265625,923.33984375,969.7265625,0.0
1734412297.5484605,969.23828125,969.7265625,923.828125,969.7265625,0.0
1734412297.5523245,969.23828125,969.7265625,918.45703125,969.7265625,0.0
1734412297.5561888,969.23828125,969.7265625,912.59765625,969.7265625,0.0
1734412297.5600529,969.23828125,969.7265625,913.0859375,969.7265625,0.0
1734412297.563917,969.23828125,971.19140625,914.0625,969.7265625,0.0
1734412297.567781,969.7265625,965.8203125,911.62109375,969.7265625,0.0
1734412297.5716453,968.75,966.30859375,887.6953125,969.7265625,0.0
1734412297.5755093,908.203125,957.03125,863.28125,969.23828125,0.0
1734412297.5793734,-894.04296875,715.33203125,860.3515625,969.7265625,0.0
1734412297.5835848,167.48046875,341.30859375,762.20703125,969.7265625,0.0
1734412297.587449,-1000.0,-411.62109375,679.19921875,977.05078125,0.0
1734412297.5913134,-980.95703125,-1000.0,236.81640625,937.98828125,0.0
1734412297.595178,-974.609375,-987.79296875,-676.26953125,972.65625,0.0
1734412297.5990422,-1000.0,-988.76953125,-1000.0,961.9140625,0.0
1734412297.6029065,-1000.0,-1000.0,-975.09765625,-276.85546875,0.0
1734412297.606771,-1000.0,-1000.0,-1000.0,-1000.0,0.0
1734412297.6106353,-1000.0,-1000.0,-994.62890625,-947.265625,0.0
1734412297.6144996,-1000.0,-1000.0,-989.2578125,-999.0234375,0.0
1734412297.618364,-1000.0,-1000.0,-999.0234375,-1000.0,0.0
1734412297.6222284,-1000.0,-1000.0,-523.4375,-1000.0,0.0
1734412297.6260927,-1000.0,-1000.0,232.91015625,-1000.0,0.0
1734412297.6302605,-1000.0,-1000.0,314.94140625,-1000.0,0.0
1734412297.634125,-1000.0,-1000.0,222.16796875,-1000.0,0.0
1734412297.6379895,-1000.0,-1000.0,416.9921875,-1000.0,0.0
1734412297.641854,-1000.0,-1000.0,554.6875,-1000.0,0.0
1734412297.6457188,-1000.0,-1000.0,548.828125,-1000.0,0.0
1734412297.6495833,-1000.0,-1000.0,379.8828125,-1000.0,0.0
1734412297.6534479,-1000.0,-1000.0,-13.671875,-1000.0,0.0
1734412297.6573126,-1000.0,-1000.0,-73.73046875,-1000.0,0.0
1734412297.6611772,-1000.0,-1000.0,404.78515625,-1000.0,0.0
1734412297.6650417,-1000.0,-1000.0,660.64453125,-1000.0,0.0
1734412297.6689062,-1000.0,-1000.0,534.66796875,-1000.0,0.0
1734412297.672771,-1000.0,-1000.0,251.953125,-1000.0,0.0
1734412297.6772633,-1000.0,-1000.0,271.97265625,-1000.0,0.0
1734412297.6811283,-1000.0,-1000.0,584.9609375,-1000.0,0.0
1734412297.6849935,-1000.0,-1000.0,661.1328125,-1000.0,0.0
1734412297.6888585,-1000.0,-1000.0,620.60546875,-1000.0,0.0
1734412297.6927235,-1000.0,-1000.0,507.32421875,-1000.0,0.0
1734412297.6965885,-1000.0,-1000.0,492.67578125,-1000.0,0.0
1734412297.7004535,-1000.0,-1000.0,720.21484375,-1000.0,0.0
1734412297.7043188,-1000.0,-1000.0,751.953125,-1000.0,0.0
1734412297.7081838,-1000.0,-1000.0,794.43359375,-1000.0,0.0
1734412297.7120488,-1000.0,-1000.0,717.7734375,-1000.0,0.0
1734412297.7159138,-1000.0,-1000.0,600.5859375,-1000.0,0.0
1734412297.7197788,-1000.0,-1000.0,754.8828125,-1000.0,0.0
1734412297.7238636,-1000.0,-1000.0,814.94140625,-1000.0,0.0
1734412297.7277288,-1000.0,-1000.0,777.83203125,-1000.0,0.0
1734412297.731594,-1000.0,-1000.0,354.00390625,-1000.0,0.0
1734412297.7354593,-1000.0,-1000.0,77.63671875,-1000.0,0.0
1734412297.7393246,-1000.0,-1000.0,373.046875,-1000.0,0.0
1734412297.7431898,-1000.0,-1000.0,481.93359375,-1000.0,0.0
1734412297.747055,-1000.0,-1000.0,116.2109375,-1000.0,0.0
1734412297.75092,-1000.0,-1000.0,-598.6328125,-1000.0,0.0
1734412297.7547853,-1000.0,-1000.0,-801.7578125,-1000.0,0.0
1734412297.7586505,-1000.0,-1000.0,117.67578125,-1000.0,0.0
1734412297.7625158,-1000.0,-992.67578125,866.69921875,-1000.0,0.0
1734412297.766381,-1000.0,-997.55859375,899.4140625,-1000.0,0.0
1734412297.7704258,-1000.0,-1000.0,61.03515625,-1000.0,0.0
1734412297.774291,-1000.0,-1000.0,-1000.0,-1000.0,0.0
1734412297.7781563,-1000.0,-1000.0,-990.234375,-1000.0,0.0
1734412297.7820218,-1000.0,-1000.0,-810.546875,-1000.0,0.0
1734412297.785887,-1000.0,-1000.0,-815.4296875,-1000.0,0.0
1734412297.7897525,-1000.0,-1000.0,-990.234375,-1000.0,0.0
1734412297.7936177,-1000.0,-1000.0,-1000.0,-1000.0,0.0
1734412297.797483,-1000.0,-1000.0,-994.62890625,-1000.0,0.0
1734412297.8013484,-1000.0,-1000.0,-1000.0,-1000.0,0.0
1734412297.8052137,-1000.0,-1000.0,-1000.0,-1000.0,0.0
1734412297.8090792,-1000.0,-1000.0,-1000.0,-1000.0,0.0
1734412297.8129444,-1000.0,-1000.0,-1000.0,-997.0703125,0.0
1734412297.816932,-1000.0,-1000.0,-1000.0,-1000.0,0.0
1734412297.8207974,-1000.0,-1000.0,-1000.0,-983.3984375,0.0
1734412297.824663,-1000.0,-1000.0,-1000.0,-948.2421875,0.0
1734412297.8285284,-1000.0,-1000.0,-1000.0,-995.60546875,0.0
1734412297.8323936,-1000.0,-1000.0,-1000.0,-942.3828125,0.0
1734412297.8362591,-1000.0,-1000.0,-1000.0,-1000.0,0.0
1734412297.8401246,-1000.0,-1000.0,-1000.0,-276.85546875,0.0
1734412297.84399,-1000.0,-1000.0,-1000.0,-822.75390625,0.0
1734412297.8478553,-1000.0,-1000.0,-1000.0,176.7578125,0.0
1734412297.8517208,-1000.0,-1000.0,-1000.0,-1000.0,0.0
1734412297.8555863,-1000.0,-1000.0,-1000.0,-1000.0,0.0
1734412297.8594518,-1000.0,-1000.0,-1000.0,1.46484375,0.0
1734412297.8637726,-1000.0,-1000.0,-1000.0,-922.36328125,0.0
1734412297.8676383,-1000.0,-1000.0,-1000.0,947.265625,0.0
1734412297.871504,-1000.0,-1000.0,-1000.0,-332.03125,0.0
1734412297.87537,-1000.0,-1000.0,-1000.0,-1000.0,0.0
1734412297.8792357,-1000.0,-1000.0,-1000.0,401.3671875,0.0
1734412297.8831015,-1000.0,-1000.0,-1000.0,-990.234375,0.0
1734412297.8869672,-1000.0,-1000.0,-1000.0,-901.3671875,0.0
1734412297.890833,-1000.0,-1000.0,-985.3515625,316.40625,0.0
1734412297.8946986,-1000.0,-1000.0,-1000.0,-615.234375,0.0
1734412297.8985643,-1000.0,-1000.0,-970.703125,742.67578125,0.0
1734412297.90243,-1000.0,-1000.0,-317.3828125,-919.921875,0.0
1734412297.9062958,-1000.0,-1000.0,301.26953125,899.90234375,0.0
1734412297.9105673,-1000.0,-1000.0,-282.2265625,983.88671875,0.0
1734412297.9144332,-1000.0,-1000.0,-668.45703125,969.7265625,0.0
1734412297.9182992,-1000.0,-1000.0,352.5390625,970.21484375,0.0
1734412297.9221652,-1000.0,-1000.0,958.984375,969.7265625,0.0
1734412297.9260314,-1000.0,-1000.0,864.2578125,969.7265625,0.0
1734412297.9298973,-1000.0,-995.60546875,850.09765625,969.7265625,0.0
1734412297.9337633,-1000.0,-993.65234375,837.890625,969.7265625,0.0
1734412297.9376295,-1000.0,-1000.0,896.97265625,969.7265625,0.0
1734412297.9414954,-1000.0,-778.3203125,923.828125,968.26171875,0.0
1734412297.9453614,-1000.0,-441.40625,912.109375,970.21484375,0.0
1734412297.9492276,-1000.0,-627.44140625,897.4609375,975.5859375,0.0
1734412297.9530935,-926.7578125,-1000.0,875.0,916.015625,0.0
1734412297.9573247,-1000.0,-636.71875,901.3671875,934.08203125,0.0
1734412297.961191,-435.05859375,704.1015625,923.828125,980.95703125,0.0
1734412297.9650574,-933.10546875,-963.8671875,924.31640625,939.453125,0.0
1734412297.9689236,-34.66796875,918.9453125,913.57421875,-940.4296875,0.0
1734412297.9727898,-1000.0,646.97265625,892.08984375,565.91796875,0.0
1734412297.9766562,-1000.0,704.1015625,906.73828125,475.5859375,0.0
1734412297.9805224,-270.5078125,-994.140625,923.33984375,-960.9375,0.0
1734412297.9843888,-823.73046875,961.42578125,920.41015625,907.71484375,0.0
1734412297.988255,278.80859375,966.30859375,908.69140625,-884.765625,0.0
1734412297.9921212,-1000.0,971.19140625,904.296875,380.859375,0.0
1734412297.9959877,-1000.0,969.7265625,907.2265625,35.15625,0.0
1734412297.9998538,-60.546875,969.7265625,915.0390625,-975.09765625,0.0
1734412298.0040467,-971.6796875,969.7265625,922.36328125,918.45703125,0.0
1734412298.007913,-961.42578125,969.7265625,917.96875,-876.46484375,0.0
1734412298.0117795,-92.28515625,969.7265625,904.78515625,319.82421875,0.0
1734412298.015646,-1000.0,970.21484375,894.04296875,-189.94140625,0.0
1734412298.0195127,78.125,970.703125,908.203125,999.51171875,0.0
1734412298.023379,-970.21484375,963.37890625,915.52734375,943.84765625,0.0
1734412298.0272455,-920.8984375,986.81640625,910.64453125,-932.6171875,0.0
1734412298.0311122,193.84765625,911.62109375,870.1171875,587.890625,0.0
1734412298.0349786,-1000.0,868.1640625,851.07421875,-69.82421875,0.0
1734412298.038845,127.44140625,972.16796875,896.97265625,885.7421875,0.0
1734412298.0427117,-945.80078125,972.65625,905.2734375,980.46875,0.0
1734412298.0465782,-982.91015625,966.30859375,896.97265625,-959.9609375,0.0
1734412298.0507174,709.47265625,970.703125,868.1640625,687.98828125,0.0
1734412298.054584,-702.63671875,970.21484375,833.0078125,-213.37890625,0.0
1734412298.0584507,163.0859375,970.21484375,848.6328125,701.171875,0.0
1734412298.0623174,-878.90625,969.7265625,863.28125,-961.42578125,0.0
1734412298.066184,904.78515625,969.7265625,869.140625,977.5390625,0.0
1734412298.070051,-964.35546875,969.7265625,782.71484375,850.5859375,0.0
1734412298.0739176,-331.0546875,970.21484375,655.2734375,-357.421875,0.0
1734412298.0777843,-131.8359375,969.7265625,633.30078125,322.75390625,0.0
1734412298.081651,-874.0234375,969.7265625,790.52734375,-930.6640625,0.0
1734412298.0855176,932.6171875,969.7265625,737.3046875,-976.07421875,0.0
1734412298.0893843,954.1015625,969.7265625,496.09375,573.73046875,0.0
1734412298.093251,973.14453125,969.7265625,516.11328125,-1000.0,0.0
1734412298.0976927,969.23828125,969.7265625,611.81640625,-170.41015625,0.0
1734412298.1015599,968.75,969.7265625,654.78515625,-960.9375,0.0
1734412298.105427,968.75,969.7265625,668.45703125,-956.0546875,0.0
1734412298.109294,969.23828125,970.21484375,584.9609375,543.45703125,0.0
1734412298.113161,969.7265625,970.21484375,375.0,-1000.0,0.0
1734412298.1170282,969.23828125,969.7265625,366.2109375,-391.6015625,0.0
1734412298.1208954,969.23828125,969.7265625,393.5546875,971.6796875,0.0
1734412298.1247623,969.23828125,969.7265625,422.36328125,-906.73828125,0.0
1734412298.1286294,968.75,969.7265625,504.39453125,256.34765625,0.0
1734412298.1324966,969.7265625,969.7265625,209.47265625,-1000.0,0.0
1734412298.1363635,969.23828125,969.7265625,185.05859375,-995.1171875,0.0
1734412298.1402307,969.23828125,969.7265625,421.875,268.5546875,0.0
1734412298.1442719,969.23828125,969.7265625,473.6328125,-778.80859375,0.0
1734412298.148139,969.23828125,969.7265625,391.6015625,100.5859375,0.0
1734412298.1520061,969.23828125,970.21484375,-40.0390625,-1000.0,0.0
1734412298.1558733,969.23828125,970.21484375,-153.80859375,-1000.0,0.0
1734412298.1597404,969.23828125,969.7265625,319.3359375,-196.77734375,0.0
1734412298.1636078,969.23828125,969.7265625,419.43359375,-877.44140625,0.0
1734412298.167475,969.23828125,969.7265625,376.46484375,31.25,0.0
1734412298.1713421,969.23828125,969.7265625,-103.02734375,-1000.0,0.0
1734412298.1752093,969.7265625,969.7265625,-617.67578125,-1000.0,0.0
1734412298.1790764,969.23828125,969.7265625,-499.0234375,-336.42578125,0.0
1734412298.1829438,969.23828125,969.7265625,-466.30859375,-874.0234375,0.0
1734412298.186811,969.23828125,969.7265625,-123.046875,62.5,0.0
1734412298.1911724,0.0,970.21484375,-257.8125,-1000.0,0.0
1734412298.19504,0.0,969.7265625,-724.12109375,-977.05078125,0.0
1734412298.1989076,0.0,970.21484375,-809.5703125,-978.515625,0.0
1734412298.202775,0.0,969.7265625,-869.62890625,-599.609375,0.0
1734412298.2066426,0.0,969.7265625,-986.81640625,-803.7109375,0.0
1734412298.21051,0.0,969.7265625,-1000.0,-1000.0,0.0
1734412298.2143776,0.0,969.7265625,-997.55859375,-973.6328125,0.0
1734412298.2182453,0.0,969.7265625,-1000.0,-1000.0,0.0
1734412298.2221127,0.0,970.21484375,-1000.0,-1000.0,0.0
1734412298.2259803,0.0,970.21484375,-1000.0,-1000.0,0.0
1734412298.2298477,0.0,970.21484375,-1000.0,-1000.0,0.0
1734412298.2337153,0.0,969.7265625,-1000.0,-1000.0,0.0
1734412298.2380378,969.23828125,969.7265625,-1000.0,-1000.0,0.0
1734412298.2419057,969.23828125,970.21484375,-998.046875,-1000.0,0.0
1734412298.2457736,969.23828125,969.7265625,-978.515625,-1000.0,0.0
1734412298.2496414,969.23828125,969.7265625,-980.95703125,-1000.0,0.0
1734412298.2535093,969.23828125,970.21484375,-1000.0,-1000.0,0.0
1734412298.2573771,969.7265625,970.21484375,-992.67578125,-1000.0,0.0
1734412298.261245,969.23828125,970.21484375,-958.0078125,-1000.0,0.0
1734412298.2651126,969.23828125,970.21484375,-865.72265625,-1000.0,0.0
1734412298.2689805,969.23828125,970.21484375,-886.23046875,-1000.0,0.0
1734412298.2728484,969.23828125,970.21484375,-1000.0,-1000.0,0.0
1734412298.2767162,969.23828125,970.21484375,-923.828125,-1000.0,0.0
1734412298.280584,969.23828125,969.7265625,-801.26953125,-1000.0,0.0
1734412298.2848356,969.23828125,969.7265625,-887.20703125,-1000.0,0.0
1734412298.2887037,969.23828125,970.21484375,-1000.0,-1000.0,0.0
1734412298.2925718,969.7265625,970.21484375,-999.0234375,-1000.0,0.0
1734412298.29644,970.703125,969.7265625,-996.58203125,-1000.0,0.0
1734412298.300308,963.37890625,969.7265625,-1000.0,-1000.0,0.0
1734412298.304176,916.50390625,970.21484375,-1000.0,-1000.0,0.0
1734412298.3080442,-903.3203125,970.21484375,-1000.0,-1000.0,0.0
1734412298.3119123,148.4375,969.7265625,-1000.0,-1000.0,0.0
1734412298.3157804,-1000.0,969.7265625,-1000.0,-1000.0,0.0
1734412298.3196485,-232.91015625,970.21484375,-1000.0,-1000.0,0.0
1734412298.3235166,-816.89453125,970.21484375,-1000.0,-1000.0,0.0
1734412298.3273845,20.99609375,969.7265625,-1000.0,-937.5,0.0
1734412298.3315952,-1000.0,970.21484375,-1000.0,-1000.0,0.0
1734412298.3354635,-958.49609375,972.16796875,-1000.0,-219.7265625,0.0
1734412298.3393319,-983.88671875,956.54296875,-1000.0,-958.984375,0.0
1734412298.3432002,-1000.0,952.63671875,-1000.0,953.61328125,0.0
1734412298.3470685,-1000.0,924.8046875,-1000.0,942.3828125,0.0
1734412298.350937,-1000.0,64.94140625,-1000.0,976.5625,0.0
1734412298.3548052,-1000.0,-932.12890625,-1000.0,970.21484375,0.0
1734412298.3586733,-1000.0,-945.80078125,-1000.0,969.7265625,0.0
1734412298.3625417,-1000.0,-767.578125,-1000.0,969.7265625,0.0
1734412298.36641,-1000.0,-645.5078125,-1000.0,970.21484375,0.0
1734412298.3702784,-1000.0,-892.578125,-1000.0,970.21484375,0.0
1734412298.3741467,-1000.0,-1000.0,-1000.0,969.7265625,0.0
1734412298.3783398,-1000.0,-981.93359375,-1000.0,969.7265625,0.0
1734412298.3822083,-1000.0,-1000.0,-1000.0,969.7265625,0.0
1734412298.3860767,-1000.0,-1000.0,-1000.0,969.7265625,0.0
1734412298.3899453,-1000.0,-1000.0,-1000.0,969.7265625,0.0
1734412298.3938138,-1000.0,-1000.0,-1000.0,970.21484375,0.0
1734412298.3976824,-1000.0,-1000.0,-1000.0,970.21484375,0.0
1734412298.4015508,-1000.0,-1000.0,-1000.0,970.21484375,0.0
1734412298.4054193,-1000.0,-1000.0,-1000.0,969.7265625,0.0
1734412298.409288,-1000.0,-1000.0,-1000.0,970.21484375,0.0
1734412298.4131565,-1000.0,-1000.0,-1000.0,969.7265625,0.0
1734412298.4170249,-1000.0,-1000.0,-999.51171875,969.7265625,0.0
1734412298.4208934,-1000.0,-1000.0,-1000.0,969.7265625,0.0
1734412298.4250698,-1000.0,-1000.0,-995.60546875,969.7265625,0.0
1734412298.4289384,-1000.0,-1000.0,-989.2578125,970.21484375,0.0
1734412298.4328072,-1000.0,-1000.0,-1000.0,969.7265625,0.0
1734412298.4366758,-1000.0,-1000.0,-992.1875,969.7265625,0.0
1734412298.4405446,-1000.0,-1000.0,-950.68359375,969.7265625,0.0
1734412298.4444132,-1000.0,-1000.0,-896.484375,969.7265625,0.0
1734412298.448282,-1000.0,-987.79296875,-887.6953125,969.7265625,0.0
1734412298.4521508,-1000.0,-982.421875,-948.2421875,969.7265625,0.0
1734412298.4560194,-1000.0,-990.234375,-881.34765625,970.21484375,0.0
1734412298.4598882,-1000.0,-195.80078125,-612.3046875,969.7265625,0.0
1734412298.4637568,-1000.0,792.48046875,-468.26171875,969.7265625,0.0
1734412298.4676256,-1000.0,856.93359375,-445.80078125,969.7265625,0.0
1734412298.471748,-1000.0,814.94140625,-467.7734375,969.7265625,0.0
1734412298.475617,-1000.0,938.96484375,-398.92578125,969.7265625,0.0
1734412298.4794858,-1000.0,979.00390625,-84.9609375,969.7265625,0.0
1734412298.4833548,-1000.0,963.8671875,211.42578125,969.7265625,0.0
1734412298.4872236,-1000.0,971.19140625,354.4921875,969.7265625,0.0
1734412298.4910924,-936.03515625,971.6796875,156.73828125,969.7265625,0.0
1734412298.4949613,-1000.0,956.0546875,-266.6015625,969.7265625,0.0
1734412298.4988303,-249.0234375,958.984375,-33.69140625,970.21484375,0.0
1734412298.5026991,958.49609375,972.16796875,489.2578125,969.7265625,0.0
1734412298.506568,-868.65234375,969.23828125,499.51171875,969.7265625,0.0
1734412298.5104368,159.66796875,969.7265625,341.30859375,970.21484375,0.0
1734412298.5143056,-1000.0,970.21484375,232.421875,969.23828125,0.0
1734412298.5183768,316.89453125,970.21484375,396.97265625,969.23828125,0.0
1734412298.5222456,-882.8125,969.7265625,504.8828125,970.21484375,0.0
1734412298.5261147,901.85546875,969.7265625,499.0234375,969.7265625,0.0
1734412298.5299838,972.16796875,969.7265625,417.96875,969.7265625,0.0
1734412298.5338528,969.23828125,969.7265625,295.8984375,969.23828125,0.0
1734412298.5377216,968.75,969.7265625,354.98046875,969.7265625,0.0
1734412298.5415907,969.23828125,969.7265625,386.23046875,970.21484375,0.0
1734412298.5454597,969.23828125,969.7265625,518.5546875,969.7265625,0.0
1734412298.5493288,969.23828125,969.7265625,581.54296875,969.7265625,0.0
1734412298.5531979,969.23828125,969.7265625,413.0859375,969.7265625,0.0
1734412298.5570667,969.23828125,969.7265625,487.3046875,969.7265625,0.0
1734412298.5609357,968.75,969.7265625,671.875,969.7265625,0.0
1734412298.5652838,968.75,969.7265625,729.00390625,969.7265625,0.0
1734412298.569153,969.23828125,969.7265625,626.953125,969.7265625,0.0
1734412298.5730224,969.23828125,969.7265625,497.55859375,969.7265625,0.0
1734412298.5768917,969.23828125,969.7265625,608.88671875,969.7265625,0.0
1734412298.580761,969.23828125,969.7265625,744.140625,969.7265625,0.0
1734412298.5846303,969.23828125,969.7265625,658.69140625,969.23828125,0.0
1734412298.5884995,969.23828125,969.7265625,611.81640625,969.7265625,0.0
1734412298.5923688,968.75,969.7265625,609.375,969.7265625,0.0
1734412298.5962381,968.75,969.7265625,675.29296875,969.7265625,0.0
1734412298.6001074,969.23828125,969.7265625,751.953125,969.7265625,0.0
1734412298.6039767,969.23828125,969.7265625,798.33984375,969.7265625,0.0
1734412298.607846,969.23828125,969.7265625,839.35546875,969.7265625,0.0
1734412298.612153,968.75,969.7265625,726.07421875,969.7265625,0.0
1734412298.6160228,969.23828125,969.7265625,701.171875,969.7265625,0.0
1734412298.6198924,969.23828125,969.7265625,801.7578125,969.7265625,0.0
1734412298.623762,969.23828125,970.21484375,833.0078125,969.7265625,0.0
1734412298.6276314,969.23828125,968.75,786.62109375,969.7265625,0.0
1734412298.631501,969.23828125,963.37890625,594.23828125,969.7265625,0.0
1734412298.6353707,969.23828125,968.26171875,553.22265625,969.7265625,0.0
1734412298.6392403,969.23828125,970.703125,713.37890625,969.7265625,0.0
1734412298.6431098,969.23828125,969.23828125,776.85546875,969.7265625,0.0
1734412298.6469793,969.23828125,970.21484375,647.94921875,969.7265625,0.0
1734412298.6508489,969.23828125,969.7265625,595.21484375,969.7265625,0.0
1734412298.6547184,968.75,969.7265625,622.55859375,969.7265625,0.0
1734412298.6589677,968.75,970.21484375,665.52734375,969.7265625,0.0
1734412298.6628375,969.23828125,968.75,758.7890625,969.7265625,0.0
1734412298.6667073,969.23828125,968.26171875,805.6640625,969.7265625,0.0
1734412298.670577,969.23828125,979.4921875,691.89453125,969.7265625,0.0
1734412298.6744468,969.23828125,905.76171875,514.16015625,969.7265625,0.0
1734412298.6783168,969.23828125,918.9453125,583.984375,969.7265625,0.0
1734412298.6821866,969.23828125,949.21875,754.8828125,969.7265625,0.0
1734412298.6860564,969.23828125,-955.078125,831.54296875,969.7265625,0.0
1734412298.6899261,969.23828125,703.125,591.30859375,969.7265625,0.0
1734412298.693796,969.23828125,404.296875,463.37890625,969.7265625,0.0
1734412298.6976657,969.23828125,927.734375,715.8203125,970.21484375,0.0
1734412298.7015355,969.23828125,-999.51171875,808.59375,967.7734375,0.0
1734412298.7057455,969.23828125,946.2890625,801.26953125,976.5625,0.0
1734412298.7096157,969.23828125,971.19140625,716.796875,940.91796875,0.0
1734412298.7134857,969.23828125,961.9140625,639.6484375,928.7109375,0.0
1734412298.7173557,969.23828125,967.28515625,695.80078125,973.14453125,0.0
1734412298.7212257,969.23828125,966.796875,781.73828125,970.21484375,0.0
1734412298.7250957,969.23828125,949.70703125,795.8984375,968.75,0.0
1734412298.7289658,968.75,988.28125,721.19140625,969.7265625,0.0
1734412298.7328358,968.75,802.734375,586.9140625,969.7265625,0.0
1734412298.7367058,969.23828125,382.32421875,550.78125,969.7265625,0.0
1734412298.7405758,969.23828125,728.02734375,745.1171875,969.7265625,0.0
1734412298.7444458,969.23828125,-941.89453125,840.8203125,969.7265625,0.0
1734412298.7483158,969.23828125,864.74609375,719.23828125,970.21484375,0.0
1734412298.752488,969.23828125,450.68359375,579.1015625,968.75,0.0
1734412298.7563581,969.23828125,418.45703125,626.46484375,970.703125,0.0
1734412298.7602284,969.23828125,866.2109375,753.90625,939.94140625,0.0
1734412298.7640986,969.23828125,855.46875,770.99609375,937.98828125,0.0
1734412298.7679687,968.75,73.2421875,736.81640625,502.44140625,0.0
1734412298.771839,969.23828125,-800.29296875,577.1484375,-437.01171875,0.0
1734412298.7757092,969.23828125,-1000.0,561.5234375,-956.0546875,0.0
1734412298.7795794,969.23828125,-975.09765625,642.08984375,-993.65234375,0.0
1734412298.7834496,969.23828125,-1000.0,689.453125,-989.2578125,0.0
1734412298.78732,969.23828125,-1000.0,793.9453125,-1000.0,0.0
1734412298.79119,969.23828125,-1000.0,626.953125,-1000.0,0.0
1734412298.7950602,969.23828125,-1000.0,550.29296875,-1000.0,0.0
1734412298.799197,969.23828125,-1000.0,704.1015625,-1000.0,0.0
1734412298.8030674,969.23828125,-1000.0,796.875,-1000.0,0.0
1734412298.8069377,969.23828125,-1000.0,785.15625,-1000.0,0.0
1734412298.8108082,969.23828125,-1000.0,657.71484375,-1000.0,0.0
1734412298.8146784,969.23828125,-1000.0,690.91796875,-1000.0,0.0
1734412298.818549,969.23828125,-1000.0,817.87109375,-1000.0,0.0
1734412298.8224192,969.23828125,-1000.0,828.125,-1000.0,0.0
1734412298.8262894,969.23828125,-1000.0,791.9921875,-1000.0,0.0
1734412298.83016,969.23828125,-1000.0,787.109375,-1000.0,0.0
1734412298.8340302,969.23828125,-1000.0,806.15234375,-1000.0,0.0
1734412298.8379006,969.23828125,-1000.0,832.51953125,-1000.0,0.0
1734412298.841771,969.23828125,-1000.0,854.4921875,-1000.0,0.0
1734412298.8458784,969.23828125,-1000.0,864.74609375,-1000.0,0.0
1734412298.849749,969.23828125,-1000.0,835.44921875,-999.51171875,0.0
1734412298.8536196,969.23828125,-1000.0,723.14453125,-991.2109375,0.0
1734412298.85749,969.23828125,-1000.0,773.92578125,-1000.0,0.0
1734412298.8613605,969.23828125,-1000.0,854.00390625,-886.23046875,0.0
1734412298.865231,969.23828125,-1000.0,856.93359375,-465.8203125,0.0
1734412298.8691015,969.23828125,-991.69921875,738.28125,-339.35546875,0.0
1734412298.872972,969.23828125,-994.140625,673.828125,-850.09765625,0.0
1734412298.8768425,969.23828125,-1000.0,827.63671875,-1000.0,0.0
1734412298.880713,969.23828125,-531.25,870.60546875,-977.05078125,0.0
1734412298.8845835,969.23828125,-289.55078125,873.046875,-1000.0,0.0
1734412298.888454,969.23828125,-667.96875,874.51171875,-1000.0,0.0
1734412298.892534,969.23828125,-906.25,858.88671875,-1000.0,0.0
1734412298.8964047,969.23828125,-815.91796875,863.76953125,-1000.0,0.0
1734412298.9002752,969.23828125,-175.78125,880.859375,-1000.0,0.0
1734412298.904146,969.23828125,647.4609375,894.04296875,-1000.0,0.0
1734412298.9080167,969.23828125,731.93359375,888.671875,-1000.0,0.0
1734412298.9118872,969.23828125,-72.265625,860.3515625,-998.046875,0.0
1734412298.915758,969.23828125,-814.453125,837.890625,-999.0234375,0.0
1734412298.9196284,970.703125,49.31640625,881.34765625,-1000.0,0.0
1734412298.923499,959.47265625,-923.33984375,908.203125,-1000.0,0.0
1734412298.9273696,995.1171875,905.2734375,895.5078125,-1000.0,0.0
1734412298.9312403,880.859375,804.6875,889.16015625,-1000.0,0.0
1734412298.935111,822.265625,921.38671875,890.625,-1000.0,0.0
1734412298.939446,977.05078125,983.3984375,897.94921875,-1000.0,0.0
1734412298.943317,972.65625,963.37890625,902.34375,-1000.0,0.0
1734412298.9471877,963.8671875,970.703125,899.90234375,-1000.0,0.0
1734412298.9510586,969.7265625,970.21484375,885.25390625,-1000.0,0.0
1734412298.9549296,969.7265625,969.7265625,877.44140625,-1000.0,0.0
1734412298.9588006,969.23828125,969.7265625,872.0703125,-1000.0,0.0
1734412298.9626713,969.23828125,969.7265625,882.8125,-1000.0,0.0
1734412298.9665422,969.7265625,970.21484375,897.94921875,-1000.0,0.0
1734412298.9704132,969.23828125,970.21484375,873.53515625,-1000.0,0.0
1734412298.9742842,969.23828125,970.21484375,839.84375,-1000.0,0.0
1734412298.978155,969.7265625,970.21484375,867.67578125,-1000.0,0.0
1734412298.9820259,969.23828125,970.21484375,890.625,-1000.0,0.0
1734412298.9863238,969.23828125,970.21484375,882.8125,-1000.0,0.0
1734412298.990195,969.23828125,969.7265625,838.37890625,-1000.0,0.0
1734412298.9940662,969.23828125,969.7265625,833.49609375,-1000.0,0.0
1734412298.9979374,969.23828125,969.7265625,868.1640625,-982.421875,0.0
1734412299.0018084,968.75,969.7265625,871.09375,-969.23828125,0.0
1734412299.0056796,970.21484375,970.21484375,863.28125,-1000.0,0.0
1734412299.0095508,969.7265625,969.7265625,833.984375,64.94140625,0.0
1734412299.013422,951.66015625,969.7265625,796.875,-909.1796875,0.0
1734412299.0172932,972.16796875,969.7265625,791.9921875,920.8984375,0.0
1734412299.0211642,922.8515625,969.7265625,750.0,961.9140625,0.0
1734412299.0250354,-990.234375,970.21484375,813.4765625,971.19140625,0.0
1734412299.0289066,876.953125,969.7265625,828.61328125,970.21484375,0.0
1734412299.0331724,-675.29296875,969.7265625,653.80859375,969.7265625,0.0
1734412299.0370436,-413.0859375,969.7265625,648.92578125,969.7265625,0.0
1734412299.040915,987.3046875,969.7265625,773.4375,969.7265625,0.0
1734412299.0447865,-913.57421875,969.7265625,801.7578125,969.7265625,0.0
1734412299.048658,382.8125,970.21484375,640.625,969.7265625,0.0
1734412299.052529,-1000.0,970.21484375,453.125,969.7265625,0.0
1734412299.0564005,-869.62890625,969.7265625,530.76171875,969.7265625,0.0
1734412299.060272,484.375,969.7265625,673.828125,969.7265625,0.0
1734412299.0641434,-805.6640625,969.7265625,578.125,969.7265625,0.0
1734412299.0680149,296.875,969.7265625,542.48046875,969.7265625,0.0
1734412299.071886,-952.1484375,970.21484375,535.64453125,969.7265625,0.0
1734412299.0757575,-1000.0,970.21484375,485.3515625,970.21484375,0.0
1734412299.0799696,0.0,970.21484375,577.1484375,969.7265625,0.0
1734412299.083841,0.0,969.7265625,639.16015625,969.7265625,0.0
1734412299.0877128,0.0,970.21484375,646.484375,969.7265625,0.0
1734412299.0915844,0.0,969.7265625,447.75390625,969.7265625,0.0
1734412299.095456,0.0,970.21484375,360.3515625,969.7265625,0.0
1734412299.0993276,0.0,969.7265625,491.2109375,969.7265625,0.0
1734412299.103199,0.0,969.7265625,545.41015625,969.7265625,0.0
1734412299.1070707,0.0,970.21484375,549.8046875,969.7265625,0.0
1734412299.1109424,0.0,969.7265625,297.8515625,970.21484375,0.0
1734412299.1148138,0.0,970.21484375,299.31640625,969.7265625,0.0
1734412299.1186855,0.0,969.7265625,534.1796875,969.7265625,0.0
1734412299.122557,0.0,969.7265625,551.26953125,969.7265625,0.0
1734412299.1267567,-957.03125,969.7265625,581.0546875,969.7265625,0.0
1734412299.1306283,-16.6015625,969.7265625,476.07421875,969.7265625,0.0
1734412299.1345003,-1000.0,970.703125,381.8359375,974.609375,0.0
1734412299.138372,-176.26953125,962.890625,408.203125,949.21875,0.0
1734412299.1422436,995.60546875,959.9609375,489.74609375,958.984375,0.0
1734412299.1461155,-918.9453125,947.265625,545.8984375,955.078125,0.0
1734412299.1499872,160.64453125,922.8515625,471.19140625,-105.46875,0.0
1734412299.1538591,-1000.0,219.7265625,213.37890625,-1000.0,0.0
1734412299.1577308,-185.546875,18.5546875,259.765625,-974.609375,0.0
1734412299.1616025,-985.3515625,893.06640625,598.6328125,-984.86328125,0.0
1734412299.1654744,-998.53515625,977.05078125,629.39453125,-1000.0,0.0
1734412299.169346,832.51953125,393.06640625,522.4609375,-1000.0,0.0
1734412299.1734846,-568.359375,-98.14453125,384.765625,-1000.0,0.0
1734412299.1773565,-85.9375,35.15625,464.35546875,-1000.0,0.0
1734412299.1812284,-874.51171875,287.109375,552.24609375,-1000.0,0.0
1734412299.1851003,925.78125,239.74609375,573.73046875,-1000.0,0.0
1734412299.1889722,964.84375,-32.2265625,538.0859375,-1000.0,0.0
1734412299.1928442,870.60546875,-659.66796875,334.9609375,-1000.0,0.0
1734412299.196716,906.73828125,-861.328125,348.6328125,-1000.0,0.0
1734412299.200588,993.65234375,-729.00390625,387.20703125,-1000.0,0.0
1734412299.20446,917.96875,-296.38671875,506.8359375,-1000.0,0.0
1734412299.2083318,-906.25,-324.21875,560.05859375,-1000.0,0.0
1734412299.2122037,502.9296875,-920.8984375,271.484375,-1000.0,0.0
1734412299.2160757,238.76953125,-1000.0,241.2109375,-1000.0,0.0
1734412299.2204762,935.546875,-862.3046875,415.0390625,-1000.0,0.0
1734412299.2243485,-879.39453125,-742.67578125,481.4453125,-1000.0,0.0
1734412299.2282207,312.5,-937.01171875,293.9453125,-1000.0,0.0
1734412299.2320929,-940.91796875,-1000.0,24.90234375,-1000.0,0.0
1734412299.235965,-1000.0,-992.1875,-6.34765625,-1000.0,0.0
1734412299.2398374,-658.203125,-1000.0,-62.01171875,-1000.0,0.0
1734412299.2437096,316.40625,-1000.0,-311.03515625,-1000.0,0.0
1734412299.2475817,-559.5703125,-1000.0,-488.28125,-1000.0,0.0
1734412299.2514539,-1000.0,-1000.0,-474.609375,-1000.0,0.0
1734412299.2553263,-935.546875,-1000.0,-583.49609375,-1000.0,0.0
1734412299.2591984,-1000.0,-1000.0,-558.10546875,-1000.0,0.0
1734412299.2630706,-1000.0,-1000.0,-444.82421875,-1000.0,0.0
1734412299.2671447,-1000.0,-1000.0,-533.203125,-1000.0,0.0
1734412299.271017,-1000.0,-1000.0,-846.19140625,-1000.0,0.0
1734412299.2748895,-1000.0,-1000.0,-991.69921875,-1000.0,0.0
1734412299.2787616,-1000.0,-1000.0,-979.00390625,-1000.0,0.0
1734412299.282634,-1000.0,-1000.0,-998.53515625,-1000.0,0.0
1734412299.2865064,-1000.0,-1000.0,-1000.0,-1000.0,0.0
1734412299.2903788,-1000.0,-1000.0,-1000.0,-1000.0,0.0
1734412299.294251,-1000.0,-1000.0,-1000.0,-1000.0,0.0
1734412299.2981234,-1000.0,-1000.0,-1000.0,-1000.0,0.0
1734412299.3019958,-1000.0,-1000.0,-1000.0,-1000.0,0.0
1734412299.3058681,-1000.0,-1000.0,-1000.0,-1000.0,0.0
1734412299.3097403,-1000.0,-1000.0,-1000.0,-1000.0,0.0
1734412299.3137991,0.0,-1000.0,-1000.0,-1000.0,0.0
1734412299.3176715,0.0,-1000.0,-1000.0,-1000.0,0.0
1734412299.321544,0.0,-1000.0,-1000.0,-1000.0,0.0
1734412299.3254163,0.0,-1000.0,-1000.0,-1000.0,0.0
1734412299.329289,0.0,-1000.0,-1000.0,-1000.0,0.0
1734412299.3331614,0.0,-1000.0,-1000.0,-1000.0,0.0
1734412299.3370337,0.0,-1000.0,-1000.0,-1000.0,0.0
1734412299.3409061,0.0,-1000.0,-1000.0,-1000.0,0.0
1734412299.3447785,0.0,-1000.0,-1000.0,-1000.0,0.0
1734412299.3486512,0.0,-1000.0,-1000.0,-1000.0,0.0
1734412299.3525236,0.0,-1000.0,-1000.0,-1000.0,0.0
1734412299.356396,0.0,-1000.0,-1000.0,-1000.0,0.0
1734412299.3606932,-1000.0,-1000.0,-1000.0,-1000.0,0.0
1734412299.3645658,-1000.0,-1000.0,-1000.0,-1000.0,0.0
1734412299.3684385,-1000.0,-991.69921875,-1000.0,-1000.0,0.0
1734412299.372311,-1000.0,-993.65234375,-1000.0,-1000.0,0.0
1734412299.3761837,-1000.0,-935.546875,-1000.0,-1000.0,0.0
1734412299.3800566,-1000.0,-413.0859375,-1000.0,-1000.0,0.0
1734412299.3839293,-1000.0,448.73046875,-1000.0,-1000.0,0.0
1734412299.387802,-1000.0,875.9765625,-1000.0,-1000.0,0.0
1734412299.3916745,-1000.0,752.9296875,-1000.0,-1000.0,0.0
1734412299.3955472,-1000.0,687.98828125,-1000.0,-1000.0,0.0
1734412299.39942,-1000.0,956.0546875,-1000.0,-1000.0,0.0
1734412299.4032927,-1000.0,987.79296875,-999.51171875,-1000.0,0.0
1734412299.4083796,-1000.0,955.56640625,-997.55859375,-1000.0,0.0
1734412299.412253,-1000.0,953.125,-1000.0,-1000.0,0.0
1734412299.4161263,-1000.0,965.33203125,-995.60546875,-1000.0,0.0
1734412299.4199996,-1000.0,972.65625,-981.4453125,-1000.0,0.0
1734412299.423873,-1000.0,968.26171875,-923.33984375,-1000.0,0.0
1734412299.4277463,-1000.0,970.21484375,-855.95703125,-1000.0,0.0
1734412299.4316196,-1000.0,970.21484375,-912.109375,-1000.0,0.0
1734412299.435493,-1000.0,969.7265625,-875.0,-1000.0,0.0
1734412299.4393663,-1000.0,969.7265625,-837.40234375,-1000.0,0.0
1734412299.4432397,-1000.0,969.7265625,-652.34375,-1000.0,0.0
1734412299.447113,-1000.0,970.21484375,-258.30078125,-1000.0,0.0
1734412299.4509864,-969.23828125,970.21484375,-431.15234375,-1000.0,0.0
1734412299.4552138,-996.09375,969.7265625,-648.4375,-1000.0,0.0
1734412299.4590874,-1000.0,969.7265625,-213.37890625,-1000.0,0.0
1734412299.462961,239.74609375,970.21484375,280.2734375,-1000.0,0.0
1734412299.4668343,-901.85546875,969.7265625,402.34375,-1000.0,0.0
1734412299.470708,908.203125,969.7265625,210.9375,-1000.0,0.0
1734412299.4745815,970.703125,969.7265625,34.1796875,-1000.0,0.0
1734412299.478455,969.7265625,969.7265625,272.94921875,-1000.0,0.0
1734412299.4823287,969.23828125,970.21484375,532.2265625,-1000.0,0.0
